Time:256Hz,Epoch,Channel 1,Channel 2,Channel 3,Channel 4,Channel 5,Channel 6,Channel 7,Channel 8,Channel 9,Channel 10,Channel 11,Channel 12,Channel 13,Channel 14,Channel 15,Channel 16,Event Id,Event Date,Event Duration
0.0000000000,0,-54706.9492187500,-37815.8632812500,-50913.0000000000,-2540.7612304688,-79708.0781250000,-44234.9335937500,-73482.4218750000,-34618.1210937500,-102070.0390625000,-98842.1093750000,-64148.6445312500,-57662.3398437500,-79541.3281250000,-51603.3359375000,-65952.7265625000,-67508.7890625000,,,
0.0039062500,0,-54692.7500000000,-37802.2343750000,-50898.8125000000,-2529.2990722656,-79692.8515625000,-44229.7968750000,-73486.0859375000,-34610.7226562500,-102070.0390625000,-98833.6406250000,-64140.2148437500,-57652.3007812500,-79530.5000000000,-51589.9648437500,-65941.0703125000,-67497.4531250000,,,
0.0078125000,0,-54692.3125000000,-37805.3867187500,-50896.6015625000,-2527.1088867188,-79685.2343750000,-44227.1093750000,-73484.9687500000,-34605.1835937500,-102070.0390625000,-98827.1406250000,-64135.3320312500,-57645.9492187500,-79533.9453125000,-51583.1601562500,-65935.6328125000,-67497.8984375000,,,
0.0117187500,0,-54701.2695312500,-37817.3359375000,-50906.0664062500,-2533.0588378906,-79689.5937500000,-44230.5742187500,-73499.0078125000,-34607.6914062500,-102070.0390625000,-98827.9296875000,-64138.0820312500,-57648.3554687500,-79539.4921875000,-51584.2460937500,-65936.0468750000,-67504.1171875000,,,
0.0156250000,0,-54706.2070312500,-37823.4062500000,-50910.0195312500,-2538.2546386719,-79696.1250000000,-44235.6757812500,-73503.7812500000,-34615.7109375000,-102070.0390625000,-98833.8359375000,-64144.3984375000,-57653.3203125000,-79544.0703125000,-51592.2890625000,-65939.8984375000,-67508.2578125000,,,
0.0195312500,0,-54696.8007812500,-37816.7382812500,-50903.4882812500,-2535.8574218750,-79699.1796875000,-44237.0000000000,-73513.2109375000,-34617.5000000000,-102070.0390625000,-98837.0703125000,-64146.5898437500,-57652.4570312500,-79544.7109375000,-51597.6054687500,-65942.9218750000,-67505.8359375000,,,
0.0234375000,0,-54683.1640625000,-37804.2539062500,-50890.9531250000,-2521.5969238281,-79691.8281250000,-44224.9531250000,-73503.0625000000,-34605.5742187500,-102070.0390625000,-98829.1875000000,-64137.3906250000,-57639.6328125000,-79532.5078125000,-51589.5273437500,-65931.7265625000,-67492.8359375000,,,
0.0273437500,0,-54678.2226562500,-37798.5468750000,-50884.8593750000,-2514.2841796875,-79676.6093750000,-44208.0039062500,-73445.0468750000,-34588.6484375000,-102070.0390625000,-98812.6484375000,-64128.1562500000,-57628.8750000000,-79521.4218750000,-51579.9843750000,-65918.2812500000,-67478.9921875000,,,
0.0312500000,0,-54690.3671875000,-37808.0625000000,-50895.7734375000,-2522.8867187500,-79676.6093750000,-44203.1250000000,-73406.6406250000,-34582.3710937500,-102070.0390625000,-98811.3750000000,-64129.6757812500,-57629.8242187500,-79521.3593750000,-51582.1171875000,-65920.8671875000,-67485.2734375000,,,
0.0351562500,0,-54703.4570312500,-37818.9414062500,-50906.8085937500,-2529.6032714844,-79686.3828125000,-44209.0039062500,-73412.6640625000,-34586.6523437500,-102070.0390625000,-98818.9062500000,-64137.1484375000,-57637.5156250000,-79527.0468750000,-51591.1679687500,-65927.1484375000,-67491.1250000000,,,
0.0390625000,0,-54704.2851562500,-37813.6601562500,-50906.3828125000,-2531.2338867188,-79687.1015625000,-44209.0039062500,-73402.5703125000,-34585.1679687500,-102070.0390625000,-98824.8046875000,-64137.3789062500,-57639.8164062500,-79526.7031250000,-51594.5507812500,-65928.1484375000,-67486.1875000000,,,
0.0429687500,0,-54697.2890625000,-37808.9882812500,-50898.5351562500,-2528.4960937500,-79685.4687500000,-44206.9453125000,-73387.0078125000,-34577.6250000000,-102070.0390625000,-98822.7734375000,-64130.6718750000,-57638.7695312500,-79523.4687500000,-51589.1601562500,-65925.8125000000,-67478.9062500000,,,
0.0468750000,0,-54695.1718750000,-37808.0390625000,-50895.3710937500,-2528.0092773438,-79683.5312500000,-44200.9335937500,-73372.6718750000,-34570.5429687500,-102070.0390625000,-98812.8046875000,-64123.3125000000,-57634.4257812500,-79515.9687500000,-51581.1171875000,-65923.5000000000,-67474.1875000000,,,
0.0507812500,0,-54699.3710937500,-37815.8281250000,-50901.7812500000,-2532.9128417969,-79686.7812500000,-44198.9257812500,-73349.3437500000,-34568.1093750000,-102070.0390625000,-98809.4375000000,-64123.3593750000,-57638.6718750000,-79516.1406250000,-51580.5078125000,-65925.4687500000,-67477.2421875000,,,
0.0546875000,0,-54703.9921875000,-37819.1367187500,-50907.3203125000,-2540.7124023438,-79694.9921875000,-44206.7031250000,-73357.6718750000,-34575.4335937500,-102070.0390625000,-98819.0625000000,-64129.4570312500,-57651.1562500000,-79521.5468750000,-51591.7148437500,-65938.8281250000,-67483.8593750000,,,
0.0585937500,0,-54694.6601562500,-37806.6757812500,-50897.9023437500,-2532.5600585938,-79692.1562500000,-44206.0585937500,-73393.3046875000,-34573.6953125000,-102070.0390625000,-98819.0625000000,-64124.1015625000,-57645.3164062500,-79514.1015625000,-51588.0039062500,-65929.9140625000,-67471.8125000000,,,
0.0625000000,0,-54677.6875000000,-37784.7734375000,-50877.8125000000,-2515.9997558594,-79669.4531250000,-44194.1835937500,-73391.8593750000,-34562.7929687500,-102070.0390625000,-98808.7187500000,-64109.2695312500,-57631.1406250000,-79500.0234375000,-51575.7890625000,-65918.7500000000,-67460.9218750000,,,
0.0664062500,0,-54672.5039062500,-37779.2500000000,-50874.1757812500,-2512.7875976563,-79665.0156250000,-44194.6445312500,-73380.3984375000,-34562.2929687500,-102070.0390625000,-98804.4218750000,-64105.9375000000,-57627.9882812500,-79498.3906250000,-51574.9140625000,-65916.5625000000,-67464.5390625000,,,
0.0703125000,0,-54687.5312500000,-37795.0937500000,-50892.3671875000,-2526.5371093750,-79673.6015625000,-44203.6953125000,-73400.4843750000,-34573.7929687500,-102070.0390625000,-98810.7656250000,-64116.8515625000,-57638.4765625000,-79511.3515625000,-51586.3984375000,-65926.9140625000,-67482.2421875000,,,
0.0742187500,0,-54694.8554687500,-37801.4921875000,-50906.4687500000,-2534.3244628906,-79679.2734375000,-44213.9921875000,-73418.7734375000,-34586.8476562500,-102070.0390625000,-98819.8750000000,-64125.8554687500,-57646.5703125000,-79519.7187500000,-51597.6406250000,-65935.9218750000,-67493.7968750000,,,
0.0781250000,0,-54689.3437500000,-37796.3359375000,-50900.3242187500,-2535.9304199219,-79681.1718750000,-44219.0546875000,-73437.5156250000,-34593.9531250000,-102070.0390625000,-98827.3125000000,-64132.3398437500,-57649.4140625000,-79524.7343750000,-51604.1406250000,-65943.4531250000,-67497.9140625000,,,
0.0820312500,0,-54681.4335937500,-37788.0859375000,-50890.1406250000,-2529.5668945313,-79672.6953125000,-44215.6093750000,-73457.9062500000,-34592.9804687500,-102070.0390625000,-98827.8437500000,-64126.6210937500,-57641.1289062500,-79519.4843750000,-51594.2968750000,-65933.3906250000,-67489.8203125000,,,
0.0859375000,0,-54668.8789062500,-37776.6484375000,-50878.0820312500,-2515.5983886719,-79656.7031250000,-44203.1601562500,-73445.4687500000,-34582.5664062500,-102070.0390625000,-98812.8671875000,-64113.5039062500,-57626.5546875000,-79508.3203125000,-51575.4726562500,-65918.1171875000,-67476.5234375000,,,
0.0898437500,0,-54675.1796875000,-37784.8710937500,-50885.9765625000,-2520.0639648438,-79658.4296875000,-44203.2578125000,-73426.0000000000,-34583.6367187500,-102070.0390625000,-98807.9375000000,-64114.2578125000,-57627.9140625000,-79510.2421875000,-51570.0312500000,-65916.2578125000,-67477.7265625000,,,
0.0937500000,0,-54685.8984375000,-37796.4570312500,-50897.4257812500,-2532.7060546875,-79669.1875000000,-44212.7031250000,-73459.6328125000,-34598.1757812500,-102070.0390625000,-98815.7421875000,-64125.2343750000,-57638.3671875000,-79519.8203125000,-51578.1015625000,-65925.2031250000,-67487.1484375000,,,
0.0976562500,0,-54689.1992187500,-37798.7539062500,-50896.6015625000,-2536.2834472656,-79682.1093750000,-44225.6718750000,-73503.2656250000,-34612.4492187500,-102070.0390625000,-98830.6484375000,-64136.9140625000,-57648.3437500000,-79530.6718750000,-51592.0312500000,-65938.4375000000,-67492.7890625000,,,
0.1015625000,0,-54684.9882812500,-37792.3046875000,-50885.7343750000,-2533.7282714844,-79680.4531250000,-44228.1796875000,-73512.4140625000,-34612.3164062500,-102070.0390625000,-98831.1328125000,-64135.8203125000,-57646.5312500000,-79529.3203125000,-51596.4960937500,-65941.3125000000,-67488.7109375000,,,
0.1054687500,0,-54680.3867187500,-37787.4257812500,-50878.0664062500,-2526.4519042969,-79675.1015625000,-44224.1406250000,-73515.7734375000,-34604.1875000000,-102070.0390625000,-98825.2343750000,-64129.7500000000,-57640.5351562500,-79525.3671875000,-51592.3125000000,-65936.5937500000,-67484.6484375000,,,
0.1093750000,0,-54686.5312500000,-37793.0625000000,-50881.3906250000,-2526.2692871094,-79669.4531250000,-44217.5078125000,-73492.5000000000,-34596.3984375000,-102070.0390625000,-98816.7656250000,-64125.4179687500,-57636.1289062500,-79520.9375000000,-51584.7070312500,-65927.2578125000,-67481.5625000000,,,
0.1132812500,0,-54698.0937500000,-37804.9726562500,-50888.3359375000,-2534.0202636719,-79653.6875000000,-44208.9648437500,-73457.2031250000,-34591.8007812500,-102070.0390625000,-98814.1796875000,-64125.1015625000,-57635.6171875000,-79521.0312500000,-51585.3164062500,-65925.2656250000,-67480.9296875000,,,
0.1171875000,0,-54698.6640625000,-37809.2421875000,-50887.4375000000,-2538.3884277344,-79673.6171875000,-44215.1718750000,-73470.1093750000,-34595.4375000000,-102070.0390625000,-98820.8281250000,-64129.2265625000,-57638.4882812500,-79525.0468750000,-51590.1328125000,-65929.8593750000,-67482.1953125000,,,
0.1210937500,0,-54678.7226562500,-37797.9765625000,-50872.3476562500,-2529.8833007813,-79676.7031250000,-44212.2148437500,-73469.9375000000,-34593.4804687500,-102070.0390625000,-98821.5078125000,-64128.4609375000,-57635.3515625000,-79524.6718750000,-51589.3906250000,-65929.1953125000,-67478.4296875000,,,
0.1250000000,1,-54661.3828125000,-37781.0507812500,-50857.2968750000,-2519.0053710938,-79667.0234375000,-44201.4453125000,-73429.8203125000,-34582.1875000000,-102070.0390625000,-98812.2265625000,-64121.5703125000,-57627.4882812500,-79518.4140625000,-51579.1601562500,-65920.1406250000,-67469.3281250000,,,
0.1289062500,1,-54649.3359375000,-37771.3398437500,-50846.9687500000,-2507.3000488281,-79652.6875000000,-44183.3281250000,-73392.1796875000,-34565.2500000000,-102070.0390625000,-98795.8593750000,-64110.8046875000,-57619.0937500000,-79507.8437500000,-51567.5273437500,-65909.1796875000,-67460.3359375000,,,
0.1328125000,1,-54661.8828125000,-37782.2695312500,-50858.5742187500,-2514.2233886719,-79659.3828125000,-44186.2734375000,-73390.8906250000,-34568.1093750000,-102070.0390625000,-98801.5312500000,-64118.0312500000,-57628.1601562500,-79514.5000000000,-51578.2343750000,-65916.2187500000,-67472.1875000000,,,
0.1367187500,1,-54676.6875000000,-37794.0234375000,-50872.9101562500,-2526.5734863281,-79670.2109375000,-44201.4101562500,-73393.5390625000,-34575.0937500000,-102070.0390625000,-98817.9062500000,-64129.8710937500,-57638.6367187500,-79523.6093750000,-51594.2695312500,-65928.1015625000,-67479.8046875000,,,
0.1406250000,1,-54674.0976562500,-37787.9882812500,-50867.4960937500,-2525.3933105469,-79672.1171875000,-44206.0585937500,-73405.6015625000,-34575.8125000000,-102070.0390625000,-98824.3437500000,-64128.4335937500,-57638.0156250000,-79524.4140625000,-51599.2460937500,-65929.5937500000,-67477.0546875000,,,
0.1445312500,1,-54669.7539062500,-37783.3867187500,-50862.4335937500,-2520.8547363281,-79663.0781250000,-44200.7265625000,-73405.8046875000,-34570.0468750000,-102070.0390625000,-98820.2578125000,-64121.1718750000,-57634.2070312500,-79517.1171875000,-51594.2851562500,-65924.9609375000,-67470.3046875000,,,
0.1484375000,1,-54665.0078125000,-37781.0507812500,-50858.6132812500,-2516.9123535156,-79658.6406250000,-44190.1171875000,-73370.1328125000,-34562.6210937500,-102070.0390625000,-98806.1796875000,-64112.6054687500,-57629.3046875000,-79508.0468750000,-51587.9804687500,-65922.4296875000,-67465.8671875000,,,
0.1523437500,1,-54669.4492187500,-37786.4296875000,-50862.7617187500,-2520.8061523438,-79656.8828125000,-44185.5078125000,-73367.7812500000,-34565.0312500000,-102070.0390625000,-98803.3906250000,-64114.7226562500,-57633.7695312500,-79509.3515625000,-51589.5390625000,-65927.9062500000,-67474.7109375000,,,
0.1562500000,1,-54669.3281250000,-37786.0898437500,-50863.6132812500,-2521.0495605469,-79658.7109375000,-44188.6953125000,-73400.4296875000,-34570.8710937500,-102070.0390625000,-98807.8281250000,-64119.8789062500,-57638.7695312500,-79513.0781250000,-51592.6757812500,-65934.9375000000,-67477.7656250000,,,
0.1601562500,1,-54657.8554687500,-37772.3164062500,-50852.2500000000,-2513.7487792969,-79651.1875000000,-44188.5625000000,-73408.3828125000,-34569.9101562500,-102070.0390625000,-98806.0390625000,-64117.2539062500,-57638.5390625000,-79510.5078125000,-51588.9765625000,-65934.0937500000,-67472.4843750000,,,
0.1640625000,1,-54651.9531250000,-37765.4765625000,-50845.7734375000,-2511.4125976563,-79642.0390625000,-44187.7343750000,-73414.9296875000,-34569.9101562500,-102070.0390625000,-98802.4375000000,-64117.3007812500,-57638.1835937500,-79510.5234375000,-51586.7617187500,-65932.8671875000,-67472.1796875000,,,
0.1679687500,1,-54663.2812500000,-37780.3085937500,-50857.8085937500,-2520.0639648438,-79644.7031250000,-44191.2851562500,-73422.4843750000,-34577.9179687500,-102070.0390625000,-98804.5781250000,-64122.6796875000,-57644.4023437500,-79516.3828125000,-51587.2734375000,-65934.2890625000,-67481.3906250000,,,
0.1718750000,1,-54674.9375000000,-37791.8320312500,-50867.7968750000,-2527.0847167969,-79645.1953125000,-44193.2343750000,-73411.1484375000,-34580.5195312500,-102070.0390625000,-98801.7343750000,-64124.9062500000,-57648.6992187500,-79518.8281250000,-51588.9414062500,-65936.0546875000,-67486.5937500000,,,
0.1757812500,1,-54672.3945312500,-37790.2851562500,-50866.9843750000,-2527.2915039063,-79636.4453125000,-44190.0820312500,-73417.9843750000,-34580.5195312500,-102070.0390625000,-98805.9531250000,-64125.0156250000,-57648.4062500000,-79519.0000000000,-51595.0859375000,-65937.8203125000,-67486.3281250000,,,
0.1796875000,1,-54661.3945312500,-37779.2031250000,-50859.5859375000,-2518.2387695313,-79650.8515625000,-44193.3906250000,-73448.0390625000,-34581.7382812500,-102070.0390625000,-98806.3437500000,-64121.9140625000,-57642.9179687500,-79515.4375000000,-51595.3671875000,-65933.9531250000,-67480.5859375000,,,
0.1835937500,1,-54645.7460937500,-37762.4726562500,-50845.7734375000,-2505.9614257813,-79641.2890625000,-44184.0351562500,-73431.0781250000,-34573.5625000000,-102070.0390625000,-98797.5859375000,-64111.6445312500,-57631.5156250000,-79504.4609375000,-51587.3945312500,-65922.3046875000,-67465.9453125000,,,
0.1875000000,1,-54644.6640625000,-37762.4218750000,-50844.8984375000,-2504.4040527344,-79637.1406250000,-44176.5156250000,-73401.0468750000,-34568.0234375000,-102070.0390625000,-98789.2031250000,-64106.1171875000,-57628.1601562500,-79501.0312500000,-51580.2304687500,-65914.4062500000,-67463.9062500000,,,
0.1914062500,1,-54664.8242187500,-37783.1093750000,-50865.5000000000,-2521.0373535156,-79647.2968750000,-44182.2460937500,-73407.8593750000,-34579.0859375000,-102070.0390625000,-98795.2031250000,-64116.1679687500,-57639.0507812500,-79511.6875000000,-51585.4257812500,-65920.3984375000,-67475.6250000000,,,
0.1953125000,1,-54680.1679687500,-37799.4960937500,-50877.8750000000,-2533.9106445313,-79656.6093750000,-44193.4140625000,-73419.2031250000,-34590.5000000000,-102070.0390625000,-98808.6250000000,-64127.9726562500,-57651.6054687500,-79522.3359375000,-51593.7617187500,-65927.6484375000,-67485.7109375000,,,
0.1992187500,1,-54680.9218750000,-37803.3203125000,-50877.0585937500,-2538.1936035156,-79658.2578125000,-44198.6718750000,-73428.9218750000,-34593.3476562500,-102070.0390625000,-98813.0625000000,-64129.8945312500,-57656.6054687500,-79526.0234375000,-51593.8828125000,-65930.3828125000,-67484.1875000000,,,
0.2031250000,1,-54673.1250000000,-37793.0234375000,-50865.6953125000,-2530.8930664063,-79648.6953125000,-44194.7304687500,-73441.7578125000,-34587.8203125000,-102070.0390625000,-98807.0312500000,-64124.2265625000,-57649.8789062500,-79520.0078125000,-51584.2812500000,-65921.2265625000,-67475.8750000000,,,
0.2070312500,1,-54668.3671875000,-37783.3632812500,-50859.5507812500,-2520.6843261719,-79635.5703125000,-44184.9453125000,-73417.0234375000,-34577.0781250000,-102070.0390625000,-98793.8984375000,-64112.8242187500,-57641.4687500000,-79511.7500000000,-51573.9648437500,-65911.5468750000,-67467.7578125000,,,
0.2109375000,1,-54676.8359375000,-37789.6796875000,-50869.0781250000,-2525.6245117188,-79639.2578125000,-44187.2460937500,-73398.3671875000,-34577.1992187500,-102070.0390625000,-98795.6171875000,-64117.2890625000,-57648.0898437500,-79518.0312500000,-51580.0000000000,-65922.1328125000,-67478.2031250000,,,
0.2148437500,1,-54687.7265625000,-37796.2265625000,-50881.4375000000,-2536.6362304688,-79653.0781250000,-44199.1328125000,-73430.7812500000,-34589.9648437500,-102070.0390625000,-98809.9609375000,-64129.9453125000,-57662.5429687500,-79527.9062500000,-51592.0820312500,-65937.0625000000,-67490.2500000000,,,
0.2187500000,1,-54682.2617187500,-37792.1484375000,-50877.5937500000,-2535.4072265625,-79661.9375000000,-44203.3554687500,-73441.8906250000,-34591.1054687500,-102070.0390625000,-98815.8359375000,-64132.2656250000,-57662.7500000000,-79526.5234375000,-51591.1562500000,-65938.3515625000,-67488.0468750000,,,
0.2226562500,1,-54673.1835937500,-37782.0234375000,-50868.0429687500,-2526.6953125000,-79658.6718750000,-44199.8046875000,-73425.9687500000,-34584.4882812500,-102070.0390625000,-98813.2109375000,-64127.0468750000,-57657.8359375000,-79522.6484375000,-51586.5703125000,-65935.4921875000,-67482.5078125000,,,
0.2265625000,1,-54672.0039062500,-37783.0234375000,-50865.7187500000,-2524.5659179688,-79659.5000000000,-44197.0781250000,-73419.9531250000,-34583.3203125000,-102070.0390625000,-98810.2265625000,-64124.1015625000,-57660.4140625000,-79521.9062500000,-51587.0781250000,-65932.8906250000,-67484.0156250000,,,
0.2304687500,1,-54682.1406250000,-37799.2539062500,-50877.3750000000,-2531.2094726563,-79664.2109375000,-44196.4804687500,-73402.9062500000,-34582.7343750000,-102070.0390625000,-98809.5859375000,-64128.0195312500,-57664.0664062500,-79523.6718750000,-51591.6171875000,-65936.6796875000,-67491.5703125000,,,
0.2343750000,1,-54689.3554687500,-37808.3554687500,-50885.8437500000,-2538.8750000000,-79667.3593750000,-44196.7500000000,-73396.9921875000,-34588.0546875000,-102070.0390625000,-98816.4687500000,-64133.3242187500,-57669.9921875000,-79525.9375000000,-51600.5507812500,-65944.5937500000,-67498.7265625000,,,
0.2382812500,1,-54683.4804687500,-37800.0937500000,-50878.0820312500,-2534.0688476563,-79655.2812500000,-44197.4179687500,-73424.5078125000,-34587.1054687500,-102070.0390625000,-98820.3671875000,-64132.7304687500,-57669.8203125000,-79523.5156250000,-51602.2421875000,-65941.6015625000,-67491.4765625000,,,
0.2421875000,1,-54672.7851562500,-37790.0546875000,-50865.9843750000,-2525.6245117188,-79663.2343750000,-44199.2578125000,-73441.9062500000,-34586.0351562500,-102070.0390625000,-98815.9609375000,-64127.8984375000,-57664.2226562500,-79525.1718750000,-51599.8203125000,-65939.4531250000,-67490.9140625000,,,
0.2460937500,1,-54667.5898437500,-37787.7304687500,-50859.7304687500,-2522.5095214844,-79653.9375000000,-44193.8789062500,-73424.3750000000,-34580.4726562500,-102070.0390625000,-98810.2421875000,-64122.5937500000,-57659.5390625000,-79522.2734375000,-51590.2695312500,-65932.6640625000,-67485.6250000000,,,
0.2500000000,2,-54676.2773437500,-37798.4140625000,-50869.2226562500,-2527.6564941406,-79656.8750000000,-44195.0078125000,-73427.6796875000,-34582.2617187500,-102070.0390625000,-98809.0468750000,-64126.7539062500,-57662.5429687500,-79526.9140625000,-51593.4804687500,-65934.5312500000,-67492.5078125000,,,
0.2539062500,2,-54692.9570312500,-37813.0781250000,-50887.4609375000,-2539.2521972656,-79671.1484375000,-44206.3359375000,-73448.3203125000,-34590.9726562500,-102070.0390625000,-98820.7031250000,-64134.8359375000,-57672.9960937500,-79535.8281250000,-51603.5546875000,-65941.7343750000,-67502.1015625000,,,
0.2578125000,2,-54686.2773437500,-37801.2734375000,-50881.8164062500,-2532.5844726563,-79671.9843750000,-44206.1054687500,-73446.9765625000,-34586.4218750000,-102070.0390625000,-98823.1171875000,-64132.4140625000,-57669.9687500000,-79530.8281250000,-51601.5468750000,-65941.0546875000,-67494.8828125000,,,
0.2617187500,2,-54670.1445312500,-37781.2695312500,-50864.1484375000,-2517.4355468750,-79666.4531250000,-44197.7343750000,-73449.9375000000,-34577.0156250000,-102070.0390625000,-98814.9609375000,-64121.1718750000,-57660.6484375000,-79520.2421875000,-51590.3515625000,-65932.4296875000,-67483.9062500000,,,
0.2656250000,2,-54661.8437500000,-37773.2265625000,-50856.8828125000,-2509.8308105469,-79659.2187500000,-44182.4882812500,-73434.3984375000,-34570.8476562500,-102070.0390625000,-98805.8828125000,-64114.1992187500,-57654.9414062500,-79507.7578125000,-51576.0820312500,-65920.2265625000,-67471.5859375000,,,
0.2695312500,2,-54669.4257812500,-37783.0234375000,-50861.6289062500,-2515.3427734375,-79661.2812500000,-44184.2656250000,-73403.0078125000,-34572.1992187500,-102070.0390625000,-98801.5546875000,-64115.5234375000,-57659.2578125000,-79516.8359375000,-51579.6328125000,-65928.1328125000,-67480.0156250000,,,
0.2734375000,2,-54681.0351562500,-37796.1875000000,-50873.0429687500,-2527.1818847656,-79668.3359375000,-44189.2656250000,-73410.9296875000,-34580.4492187500,-102070.0390625000,-98807.0625000000,-64123.9921875000,-57669.0078125000,-79521.3359375000,-51586.8007812500,-65936.3437500000,-67485.5859375000,,,
0.2773437500,2,-54670.7773437500,-37788.2929687500,-50866.4257812500,-2522.1931152344,-79663.1484375000,-44187.6484375000,-73427.6250000000,-34578.4296875000,-102070.0390625000,-98808.5234375000,-64119.0781250000,-57664.6250000000,-79517.8203125000,-51585.4843750000,-65932.7421875000,-67478.2734375000,,,
0.2812500000,2,-54653.9375000000,-37773.0195312500,-50851.5664062500,-2511.9116210938,-79653.6640625000,-44182.7578125000,-73418.5937500000,-34569.4609375000,-102070.0390625000,-98806.5625000000,-64111.9960937500,-57659.6718750000,-79508.8281250000,-51579.7421875000,-65923.6328125000,-67467.7968750000,,,
0.2851562500,2,-54648.8750000000,-37772.8750000000,-50847.1015625000,-2510.3417968750,-79648.4531250000,-44180.6132812500,-73416.5937500000,-34566.5039062500,-102070.0390625000,-98804.9218750000,-64109.9414062500,-57658.3242187500,-79510.1328125000,-51580.6054687500,-65925.3203125000,-67471.4609375000,,,
0.2890625000,2,-54654.3750000000,-37781.7929687500,-50855.5351562500,-2513.4445800781,-79649.4375000000,-44180.4101562500,-73413.8828125000,-34566.4570312500,-102070.0390625000,-98802.8203125000,-64111.3164062500,-57662.6054687500,-79512.1640625000,-51583.1250000000,-65928.4609375000,-67478.5781250000,,,
0.2929687500,2,-54664.2890625000,-37792.2578125000,-50861.8476562500,-2521.4267578125,-79653.9062500000,-44184.1796875000,-73405.1953125000,-34570.2890625000,-102070.0390625000,-98805.1875000000,-64116.5585937500,-57671.5000000000,-79517.0781250000,-51588.9296875000,-65935.2734375000,-67485.2109375000,,,
0.2968750000,2,-54665.9453125000,-37789.8750000000,-50859.2812500000,-2522.1201171875,-79655.4765625000,-44182.4023437500,-73420.3437500000,-34573.3320312500,-102070.0390625000,-98805.8984375000,-64115.1953125000,-57672.7187500000,-79515.1562500000,-51586.2148437500,-65931.1796875000,-67478.1875000000,,,
0.3007812500,2,-54648.4960937500,-37769.3085937500,-50838.7421875000,-2503.0534667969,-79642.8046875000,-44170.1875000000,-73430.9453125000,-34562.3554687500,-102070.0390625000,-98792.8437500000,-64099.4257812500,-57659.7812500000,-79500.4609375000,-51567.0156250000,-65912.3437500000,-67458.9531250000,,,
0.3046875000,2,-54636.1093750000,-37755.9609375000,-50825.0898437500,-2491.0317382813,-79630.7265625000,-44155.9023437500,-73404.8046875000,-34550.8203125000,-102070.0390625000,-98778.7500000000,-64086.2265625000,-57650.6328125000,-79489.3125000000,-51549.8242187500,-65896.6562500000,-67445.2500000000,,,
0.3085937500,2,-54644.2382812500,-37763.7734375000,-50831.6835937500,-2495.2539062500,-79623.1484375000,-44150.4023437500,-73377.7187500000,-34545.8906250000,-102070.0390625000,-98775.4765625000,-64084.5195312500,-57651.9218750000,-79490.5312500000,-51545.4804687500,-65893.3203125000,-67448.7109375000,,,
0.3125000000,2,-54657.5000000000,-37777.5820312500,-50845.6914062500,-2506.0102539063,-79640.7187500000,-44162.3281250000,-73392.6718750000,-34558.6445312500,-102070.0390625000,-98784.5546875000,-64095.9960937500,-57663.9062500000,-79496.9296875000,-51553.6328125000,-65901.0703125000,-67462.7968750000,,,
0.3164062500,2,-54659.7890625000,-37780.1875000000,-50850.9843750000,-2511.3518066406,-79648.5625000000,-44170.9179687500,-73400.2187500000,-34565.8593750000,-102070.0390625000,-98799.0703125000,-64104.1718750000,-57673.5585937500,-79507.3046875000,-51568.8398437500,-65911.2109375000,-67469.5625000000,,,
0.3203125000,2,-54656.2460937500,-37777.1445312500,-50849.5234375000,-2509.0764160156,-79652.9453125000,-44178.1679687500,-73411.6171875000,-34567.0039062500,-102070.0390625000,-98808.1328125000,-64109.4414062500,-57677.6796875000,-79511.7031250000,-51576.8593750000,-65917.4296875000,-67472.9062500000,,,
0.3242187500,2,-54650.7734375000,-37773.1171875000,-50846.3828125000,-2506.6672363281,-79655.3671875000,-44181.1250000000,-73426.7109375000,-34565.8945312500,-102070.0390625000,-98811.1015625000,-64109.6835937500,-57679.7617187500,-79514.4765625000,-51580.4257812500,-65918.9843750000,-67473.8671875000,,,
0.3281250000,2,-54658.1718750000,-37781.9023437500,-50853.8789062500,-2511.5830078125,-79658.0625000000,-44182.4648437500,-73405.3906250000,-34566.6640625000,-102070.0390625000,-98809.5078125000,-64113.3593750000,-57683.0234375000,-79517.7109375000,-51582.9414062500,-65921.4453125000,-67480.8281250000,,,
0.3320312500,2,-54674.2421875000,-37797.8437500000,-50868.4062500000,-2523.7385253906,-79665.1093750000,-44187.8671875000,-73399.7343750000,-34573.8046875000,-102070.0390625000,-98814.6953125000,-64120.6210937500,-57693.1328125000,-79526.5937500000,-51589.2226562500,-65927.2734375000,-67491.4921875000,,,
0.3359375000,2,-54675.8750000000,-37799.1562500000,-50868.7226562500,-2525.7097167969,-79673.6796875000,-44192.0390625000,-73435.0703125000,-34580.9218750000,-102070.0390625000,-98822.4687500000,-64124.4296875000,-57697.9414062500,-79531.1953125000,-51596.1093750000,-65933.7421875000,-67495.3828125000,,,
0.3398437500,2,-54665.9218750000,-37788.6445312500,-50858.0898437500,-2517.6303710938,-79667.7656250000,-44190.0195312500,-73445.6171875000,-34577.6367187500,-102070.0390625000,-98822.9687500000,-64120.3320312500,-57694.2539062500,-79523.3125000000,-51592.5312500000,-65930.8125000000,-67487.4609375000,,,
0.3437500000,2,-54648.0351562500,-37770.2109375000,-50838.8867187500,-2500.7902832031,-79657.8203125000,-44181.4531250000,-73434.7890625000,-34564.5585937500,-102070.0390625000,-98810.7421875000,-64104.0742187500,-57680.6992187500,-79511.2734375000,-51576.2265625000,-65914.5078125000,-67470.8515625000,,,
0.3476562500,2,-54640.8437500000,-37763.9453125000,-50830.8203125000,-2490.2043457031,-79648.7812500000,-44170.7226562500,-73425.6640625000,-34554.0546875000,-102070.0390625000,-98797.8750000000,-64094.6953125000,-57674.1171875000,-79502.6640625000,-51567.0507812500,-65904.3671875000,-67465.8281250000,,,
0.3515625000,2,-54651.1601562500,-37775.9414062500,-50841.9296875000,-2497.6630859375,-79651.5781250000,-44172.1718750000,-73414.5859375000,-34556.2578125000,-102070.0390625000,-98797.8437500000,-64098.0390625000,-57679.6757812500,-79506.3750000000,-51567.6367187500,-65907.1796875000,-67472.4218750000,,,
0.3554687500,2,-54651.7812500000,-37776.4414062500,-50842.3554687500,-2501.0578613281,-79654.7343750000,-44174.8593750000,-73414.1171875000,-34558.1679687500,-102070.0390625000,-98803.6484375000,-64102.7109375000,-57685.6875000000,-79511.4296875000,-51570.9570312500,-65912.5000000000,-67476.4843750000,,,
0.3593750000,2,-54648.7421875000,-37773.6796875000,-50839.2304687500,-2500.9362792969,-79659.0390625000,-44181.0781250000,-73444.5468750000,-34565.2031250000,-102070.0390625000,-98810.0078125000,-64106.4218750000,-57689.2031250000,-79515.9921875000,-51574.1210937500,-65917.0468750000,-67477.4843750000,,,
0.3632812500,2,-54643.3359375000,-37767.8750000000,-50832.5742187500,-2497.9916992188,-79657.7734375000,-44179.1679687500,-73442.9921875000,-34561.3203125000,-102070.0390625000,-98806.1406250000,-64103.1132812500,-57684.4726562500,-79514.7187500000,-51568.0507812500,-65913.1328125000,-67472.8203125000,,,
0.3671875000,2,-54638.1289062500,-37766.3164062500,-50823.0351562500,-2491.0195312500,-79648.4687500000,-44169.1289062500,-73406.5312500000,-34549.8085937500,-102070.0390625000,-98795.0546875000,-64094.8632812500,-57676.4882812500,-79508.1953125000,-51556.5390625000,-65903.2890625000,-67464.4765625000,,,
0.3710937500,2,-54643.3007812500,-37774.8828125000,-50827.0507812500,-2491.5793457031,-79649.8281250000,-44163.9921875000,-73399.5859375000,-34547.0585937500,-102070.0390625000,-98791.0625000000,-64093.5742187500,-57676.0156250000,-79507.7109375000,-51554.5312500000,-65900.5859375000,-67465.9218750000,,,
0.3750000000,3,-54642.3398437500,-37772.9101562500,-50826.4765625000,-2490.4719238281,-79650.3750000000,-44163.1796875000,-73402.6250000000,-34545.9531250000,-102070.0390625000,-98793.3281250000,-64094.6953125000,-57678.1328125000,-79505.4687500000,-51558.1210937500,-65902.2890625000,-67466.7421875000,,,
0.3789062500,3,-54634.0429687500,-37762.2773437500,-50816.4648437500,-2484.4611816406,-79649.0625000000,-44161.9882812500,-73397.7656250000,-34541.9375000000,-102070.0390625000,-98796.3046875000,-64091.5195312500,-57675.9531250000,-79497.4921875000,-51556.3085937500,-65898.5703125000,-67457.4765625000,,,
0.3828125000,3,-54627.1171875000,-37753.9921875000,-50811.1718750000,-2482.2343750000,-79649.8750000000,-44160.7460937500,-73409.0546875000,-34540.5625000000,-102070.0390625000,-98795.6171875000,-64089.1210937500,-57673.6289062500,-79500.5703125000,-51556.2968750000,-65902.5937500000,-67459.1015625000,,,
0.3867187500,3,-54624.5273437500,-37754.9531250000,-50812.2539062500,-2480.5554199219,-79651.5234375000,-44157.5585937500,-73400.5625000000,-34537.4218750000,-102070.0390625000,-98792.2890625000,-64087.0507812500,-57673.7773437500,-79499.5781250000,-51552.5585937500,-65899.6640625000,-67460.2421875000,,,
0.3906250000,3,-54637.0585937500,-37769.0781250000,-50824.0820312500,-2492.7961425781,-79651.4609375000,-44158.6992187500,-73378.1093750000,-34541.4257812500,-102070.0390625000,-98792.6250000000,-64089.2773437500,-57679.9335937500,-79503.9140625000,-51556.2695312500,-65903.5312500000,-67466.3281250000,,,
0.3945312500,3,-54648.4609375000,-37779.7968750000,-50836.9414062500,-2502.5180664063,-79662.3515625000,-44166.0625000000,-73396.5000000000,-34549.4687500000,-102070.0390625000,-98800.7890625000,-64094.3046875000,-57687.9023437500,-79509.4609375000,-51567.6132812500,-65911.7421875000,-67472.7734375000,,,
0.3984375000,3,-54637.1445312500,-37767.2187500000,-50825.2500000000,-2492.9663085938,-79650.2812500000,-44160.4062500000,-73411.4531250000,-34545.7929687500,-102070.0390625000,-98799.7421875000,-64088.9882812500,-57682.9140625000,-79502.9609375000,-51565.5195312500,-65908.5781250000,-67464.6718750000,,,
0.4023437500,3,-54623.9531250000,-37752.0078125000,-50811.2539062500,-2479.9348144531,-79648.3046875000,-44157.8867187500,-73405.3750000000,-34537.1796875000,-102070.0390625000,-98793.6093750000,-64081.4687500000,-57676.5859375000,-79495.5781250000,-51556.9882812500,-65896.0234375000,-67452.0781250000,,,
0.4062500000,3,-54622.3007812500,-37755.9843750000,-50810.1718750000,-2479.0466308594,-79647.6640625000,-44157.0937500000,-73408.6406250000,-34538.7851562500,-102070.0390625000,-98793.0234375000,-64082.9023437500,-57678.4375000000,-79498.8046875000,-51552.9023437500,-65899.1875000000,-67458.1484375000,,,
0.4101562500,3,-54633.5195312500,-37771.4257812500,-50823.2031250000,-2487.8925781250,-79656.7968750000,-44162.5351562500,-73410.6875000000,-34547.4609375000,-102070.0390625000,-98795.7109375000,-64091.3359375000,-57688.1835937500,-79506.7031250000,-51557.8789062500,-65908.4843750000,-67470.0390625000,,,
0.4140625000,3,-54641.5117187500,-37780.9414062500,-50831.1601562500,-2496.6289062500,-79658.8593750000,-44164.6015625000,-73403.7968750000,-34550.8437500000,-102070.0390625000,-98798.0234375000,-64095.3984375000,-57694.2421875000,-79509.7656250000,-51560.5898437500,-65913.9921875000,-67471.3671875000,,,
0.4179687500,3,-54638.1289062500,-37774.2734375000,-50824.1406250000,-2494.7429199219,-79658.2578125000,-44163.8242187500,-73420.2343750000,-34550.6132812500,-102070.0390625000,-98799.2734375000,-64093.6093750000,-57693.8515625000,-79507.8671875000,-51560.6406250000,-65912.1562500000,-67465.7812500000,,,
0.4218750000,3,-54630.3164062500,-37764.7226562500,-50812.5312500000,-2486.8703613281,-79650.4375000000,-44157.8125000000,-73431.1875000000,-34544.0429687500,-102070.0390625000,-98792.6562500000,-64083.1953125000,-57684.0585937500,-79499.4843750000,-51553.1562500000,-65900.5781250000,-67452.5546875000,,,
0.4257812500,3,-54621.0585937500,-37758.7734375000,-50804.8671875000,-2481.4558105469,-79626.6250000000,-44142.5664062500,-73395.4531250000,-34530.6328125000,-102070.0390625000,-98779.5546875000,-64069.9921875000,-57671.5742187500,-79483.5781250000,-51540.2812500000,-65880.9375000000,-67434.2265625000,,,
0.4296875000,3,-54626.2421875000,-37768.5898437500,-50810.6835937500,-2486.2011718750,-79638.0625000000,-44143.2851562500,-73380.5703125000,-34531.3632812500,-102070.0390625000,-98775.6015625000,-64067.3515625000,-57671.4648437500,-79489.1328125000,-51540.9414062500,-65885.0000000000,-67441.2109375000,,,
0.4335937500,3,-54638.4960937500,-37783.0117187500,-50824.9687500000,-2496.9453125000,-79649.3671875000,-44151.9843750000,-73397.8828125000,-34542.1796875000,-102070.0390625000,-98785.3828125000,-64076.8671875000,-57680.3945312500,-79498.5937500000,-51554.0312500000,-65896.0468750000,-67454.3437500000,,,
0.4375000000,3,-54635.2695312500,-37777.1210937500,-50820.8320312500,-2494.0979003906,-79647.5859375000,-44152.6523437500,-73401.5703125000,-34540.8554687500,-102070.0390625000,-98787.2421875000,-64075.0195312500,-57678.2656250000,-79495.1796875000,-51555.6875000000,-65898.1562500000,-67449.1171875000,,,
0.4414062500,3,-54617.2734375000,-37759.3203125000,-50802.4843750000,-2479.1437988281,-79632.4531250000,-44145.0000000000,-73408.8125000000,-34530.7070312500,-102070.0390625000,-98779.1796875000,-64065.4804687500,-57670.5039062500,-79484.8359375000,-51547.3750000000,-65889.9531250000,-67439.5703125000,,,
0.4453125000,3,-54602.7968750000,-37748.9414062500,-50789.2460937500,-2465.0537109375,-79614.8984375000,-44131.8593750000,-73413.8750000000,-34520.7421875000,-102070.0390625000,-98765.6093750000,-64053.9804687500,-57659.1132812500,-79473.8828125000,-51533.3242187500,-65878.4921875000,-67429.0703125000,,,
0.4492187500,3,-54604.6328125000,-37755.2695312500,-50791.9101562500,-2464.8591308594,-79604.9453125000,-44126.2382812500,-73390.7656250000,-34517.1640625000,-102070.0390625000,-98758.9921875000,-64051.2539062500,-57659.8203125000,-79474.1875000000,-51529.8437500000,-65878.8515625000,-67430.1640625000,,,
0.4531250000,3,-54619.0273437500,-37765.8281250000,-50804.0390625000,-2476.2602539063,-79605.8671875000,-44130.7890625000,-73389.4765625000,-34520.9843750000,-102070.0390625000,-98762.7578125000,-64056.3515625000,-57666.7187500000,-79479.2968750000,-51533.2500000000,-65885.0000000000,-67437.0156250000,,,
0.4570312500,3,-54622.1914062500,-37762.9218750000,-50807.1679687500,-2478.4138183594,-79597.7890625000,-44128.5625000000,-73407.3359375000,-34521.0351562500,-102070.0390625000,-98766.2031250000,-64057.7773437500,-57668.1171875000,-79480.3046875000,-51536.2070312500,-65885.3437500000,-67437.2343750000,,,
0.4609375000,3,-54615.1210937500,-37754.9023437500,-50800.8750000000,-2471.9284667969,-79610.1093750000,-44130.0820312500,-73401.8984375000,-34515.6445312500,-102070.0390625000,-98765.6484375000,-64052.6523437500,-57664.0546875000,-79475.1250000000,-51533.7617187500,-65879.1562500000,-67429.1796875000,,,
0.4648437500,3,-54612.5664062500,-37753.2734375000,-50795.2187500000,-2468.4118652344,-79610.1640625000,-44125.5546875000,-73381.4453125000,-34509.3906250000,-102070.0390625000,-98762.7890625000,-64049.3671875000,-57661.2187500000,-79473.5156250000,-51533.5039062500,-65873.1250000000,-67423.6171875000,,,
0.4687500000,3,-54624.2343750000,-37763.4218750000,-50807.1796875000,-2477.8176269531,-79621.8828125000,-44128.6835937500,-73374.8828125000,-34513.2929687500,-102070.0390625000,-98764.6484375000,-64056.7929687500,-57667.2304687500,-79481.3437500000,-51537.3007812500,-65883.9921875000,-67438.2656250000,,,
0.4726562500,3,-54639.5546875000,-37779.3710937500,-50824.3710937500,-2491.5427246094,-79636.7968750000,-44135.6054687500,-73362.1953125000,-34520.8515625000,-102070.0390625000,-98772.2031250000,-64067.4726562500,-57677.6328125000,-79491.3437500000,-51545.6250000000,-65894.3593750000,-67448.4140625000,,,
0.4765625000,3,-54634.3320312500,-37775.0273437500,-50821.7187500000,-2490.7031250000,-79637.0546875000,-44134.6328125000,-73360.9531250000,-34522.8476562500,-102070.0390625000,-98773.6406250000,-64067.1093750000,-57679.6640625000,-79489.9453125000,-51545.7460937500,-65892.7109375000,-67444.4140625000,,,
0.4804687500,3,-54612.0546875000,-37758.3085937500,-50801.2656250000,-2477.7568359375,-79625.6171875000,-44126.7226562500,-73381.0468750000,-34517.1015625000,-102070.0390625000,-98767.5703125000,-64056.1718750000,-57669.3359375000,-79478.5312500000,-51537.9101562500,-65880.9140625000,-67434.5781250000,,,
0.4843750000,3,-54597.3437500000,-37746.1679687500,-50788.1875000000,-2467.8522949219,-79613.2500000000,-44119.9335937500,-73378.2656250000,-34510.3398437500,-102070.0390625000,-98764.1484375000,-64049.4062500000,-57662.5078125000,-79472.3593750000,-51533.5781250000,-65877.3828125000,-67429.4843750000,,,
0.4882812500,3,-54605.4101562500,-37754.5273437500,-50794.9648437500,-2471.6120605469,-79610.3046875000,-44122.1992187500,-73367.8984375000,-34509.1835937500,-102070.0390625000,-98763.9453125000,-64049.8085937500,-57664.0546875000,-79475.1484375000,-51536.3164062500,-65885.1328125000,-67434.4921875000,,,
0.4921875000,3,-54622.5546875000,-37770.9882812500,-50812.9335937500,-2482.5021972656,-79613.8828125000,-44128.9375000000,-73393.2343750000,-34517.3710937500,-102070.0390625000,-98768.8828125000,-64058.2148437500,-57674.0195312500,-79483.2421875000,-51543.4453125000,-65897.3359375000,-67443.0390625000,,,
0.4960937500,3,-54622.4570312500,-37769.3359375000,-50811.5703125000,-2479.2897949219,-79619.8828125000,-44134.0117187500,-73416.0703125000,-34520.0703125000,-102070.0390625000,-98771.6171875000,-64058.6757812500,-57674.2148437500,-79484.5312500000,-51545.2109375000,-65899.2031250000,-67439.7265625000,,,
0.5000000000,4,-54611.3125000000,-37757.1054687500,-50797.6406250000,-2470.5656738281,-79616.7812500000,-44130.8867187500,-73421.6953125000,-34514.5351562500,-102070.0390625000,-98768.0546875000,-64052.1679687500,-57667.8007812500,-79478.6562500000,-51539.6132812500,-65891.1718750000,-67429.2656250000,,,
0.5039062500,4,-54601.1640625000,-37745.1093750000,-50787.4687500000,-2464.6279296875,-79614.3593750000,-44125.9687500000,-73434.6406250000,-34510.6406250000,-102070.0390625000,-98765.9218750000,-64046.9101562500,-57659.0039062500,-79474.0390625000,-51530.7539062500,-65881.6328125000,-67422.5234375000,,,
0.5078125000,4,-54605.6796875000,-37751.0078125000,-50792.2734375000,-2466.5380859375,-79617.0390625000,-44125.2031250000,-73415.6875000000,-34508.7421875000,-102070.0390625000,-98763.2812500000,-64049.4921875000,-57662.8984375000,-79475.6953125000,-51528.4921875000,-65880.8906250000,-67428.2500000000,,,
0.5117187500,4,-54623.1289062500,-37770.1601562500,-50811.5117187500,-2480.8959960938,-79628.8671875000,-44133.5859375000,-73391.0937500000,-34515.6796875000,-102070.0390625000,-98771.2812500000,-64059.4062500000,-57672.8632812500,-79484.5781250000,-51537.3984375000,-65887.8125000000,-67439.0078125000,,,
0.5156250000,4,-54623.6992187500,-37773.6171875000,-50816.3046875000,-2484.2907714844,-79636.7265625000,-44137.3945312500,-73400.3671875000,-34522.6289062500,-102070.0390625000,-98777.1718750000,-64063.9453125000,-57676.3906250000,-79488.1718750000,-51543.1054687500,-65887.2500000000,-67442.2421875000,,,
0.5195312500,4,-54612.0195312500,-37761.1562500000,-50805.3671875000,-2471.2470703125,-79631.9062500000,-44131.7265625000,-73399.5625000000,-34516.2890625000,-102070.0390625000,-98774.7812500000,-64055.9023437500,-57668.2265625000,-79480.7343750000,-51535.8554687500,-65877.7578125000,-67427.3437500000,,,
0.5234375000,4,-54592.5976562500,-37740.0117187500,-50783.0625000000,-2451.3894042969,-79608.0234375000,-44110.8828125000,-73364.8750000000,-34497.9531250000,-102070.0390625000,-98756.4687500000,-64036.4609375000,-57650.4492187500,-79461.0312500000,-51518.4414062500,-65864.2578125000,-67407.1171875000,,,
0.5273437500,4,-54584.1406250000,-37732.0898437500,-50771.9414062500,-2442.4704589844,-79600.3828125000,-44100.2109375000,-73352.5625000000,-34492.1093750000,-102070.0390625000,-98743.8671875000,-64028.4296875000,-57645.7890625000,-79456.5781250000,-51509.8750000000,-65858.1328125000,-67398.2812500000,,,
0.5312500000,4,-54594.3750000000,-37741.6757812500,-50779.4609375000,-2447.9458007813,-79599.8906250000,-44097.2187500000,-73349.6406250000,-34494.0937500000,-102070.0390625000,-98740.7968750000,-64030.2031250000,-57649.1250000000,-79460.8437500000,-51509.2539062500,-65865.6562500000,-67407.9062500000,,,
0.5351562500,4,-54601.9687500000,-37748.8437500000,-50787.1289062500,-2455.5507812500,-79603.8437500000,-44102.4726562500,-73354.1171875000,-34499.5312500000,-102070.0390625000,-98748.1484375000,-64037.6132812500,-57656.1328125000,-79468.3828125000,-51519.8398437500,-65871.2031250000,-67415.2421875000,,,
0.5390625000,4,-54596.5546875000,-37740.4609375000,-50782.3085937500,-2451.2067871094,-79609.5390625000,-44109.3750000000,-73386.9921875000,-34502.6484375000,-102070.0390625000,-98755.6562500000,-64039.8906250000,-57658.4570312500,-79468.4218750000,-51525.1328125000,-65870.6406250000,-67414.7343750000,,,
0.5429687500,4,-54590.0781250000,-37732.6367187500,-50777.0625000000,-2444.8796386719,-79610.6015625000,-44112.2695312500,-73405.7421875000,-34501.6015625000,-102070.0390625000,-98756.3828125000,-64036.5195312500,-57654.4062500000,-79467.3515625000,-51525.5117187500,-65869.0000000000,-67410.9765625000,,,
0.5468750000,4,-54588.4609375000,-37732.3320312500,-50777.4882812500,-2442.4218750000,-79606.7812500000,-44107.7070312500,-73380.2734375000,-34495.3359375000,-102070.0390625000,-98750.7656250000,-64032.4687500000,-57652.6757812500,-79463.4687500000,-51518.6484375000,-65865.6171875000,-67408.8671875000,,,
0.5507812500,4,-54598.0742187500,-37744.8046875000,-50788.2578125000,-2449.2722167969,-79613.4140625000,-44108.1093750000,-73368.6562500000,-34497.6601562500,-102070.0390625000,-98748.9843750000,-64036.7890625000,-57659.8906250000,-79467.8515625000,-51519.2226562500,-65873.2578125000,-67418.3515625000,,,
0.5546875000,4,-54610.8007812500,-37756.5820312500,-50799.0156250000,-2459.0185546875,-79625.2656250000,-44113.6562500000,-73376.8828125000,-34506.9804687500,-102070.0390625000,-98758.7578125000,-64044.6601562500,-57668.6640625000,-79475.4531250000,-51526.0937500000,-65885.0625000000,-67426.3671875000,,,
0.5585937500,4,-54604.3515625000,-37747.3085937500,-50787.2382812500,-2455.9643554688,-79621.0312500000,-44108.8398437500,-73358.5781250000,-34502.3085937500,-102070.0390625000,-98755.8281250000,-64040.8984375000,-57665.5507812500,-79470.2812500000,-51522.7617187500,-65877.7031250000,-67414.2343750000,,,
0.5625000000,4,-54594.0468750000,-37736.1406250000,-50770.0195312500,-2447.3862304688,-79608.9843750000,-44098.5195312500,-73344.8046875000,-34494.2773437500,-102070.0390625000,-98747.2812500000,-64033.1601562500,-57657.6914062500,-79456.3750000000,-51507.2851562500,-65870.9843750000,-67407.7968750000,,,
0.5664062500,4,-54587.6953125000,-37733.0507812500,-50765.5312500000,-2439.9516601563,-79597.8125000000,-44088.5781250000,-73326.9453125000,-34487.0507812500,-102070.0390625000,-98738.5703125000,-64026.9570312500,-57650.8632812500,-79454.6250000000,-51500.1054687500,-65861.3359375000,-67402.4218750000,,,
0.5703125000,4,-54591.8671875000,-37740.3398437500,-50777.1992187500,-2444.7702636719,-79597.9921875000,-44089.2968750000,-73299.0703125000,-34488.8632812500,-102070.0390625000,-98739.8984375000,-64033.5273437500,-57657.8710937500,-79461.3515625000,-51504.9843750000,-65864.7421875000,-67413.1406250000,,,
0.5742187500,4,-54602.5039062500,-37751.9218750000,-50793.5742187500,-2456.6335449219,-79609.6015625000,-44101.2578125000,-73320.0937500000,-34501.0312500000,-102070.0390625000,-98752.9531250000,-64044.6718750000,-57668.0078125000,-79472.6875000000,-51518.8671875000,-65877.8671875000,-67426.5468750000,,,
0.5781250000,4,-54602.8789062500,-37746.5664062500,-50794.3437500000,-2455.8061523438,-79616.4765625000,-44110.1015625000,-73368.6171875000,-34509.7539062500,-102070.0390625000,-98764.1093750000,-64050.9023437500,-57672.1445312500,-79480.0312500000,-51528.6250000000,-65885.2343750000,-67432.7578125000,,,
0.5820312500,4,-54597.5039062500,-37739.3789062500,-50787.8710937500,-2450.3916015625,-79615.8203125000,-44115.1054687500,-73385.8281250000,-34511.0195312500,-102070.0390625000,-98767.2968750000,-64050.1484375000,-57669.8945312500,-79481.1562500000,-51529.8671875000,-65887.7890625000,-67432.8046875000,,,
0.5859375000,4,-54600.1289062500,-37740.8476562500,-50789.6445312500,-2450.0266113281,-79619.2500000000,-44116.2460937500,-73396.8515625000,-34511.6992187500,-102070.0390625000,-98767.9609375000,-64050.3789062500,-57669.2734375000,-79484.8984375000,-51529.3437500000,-65887.0937500000,-67435.7812500000,,,
0.5898437500,4,-54612.5429687500,-37753.8203125000,-50800.7929687500,-2459.4687500000,-79620.3125000000,-44123.7929687500,-73417.7500000000,-34519.6093750000,-102070.0390625000,-98771.4375000000,-64057.7265625000,-57676.5742187500,-79492.9609375000,-51533.8828125000,-65892.1328125000,-67445.3125000000,,,
0.5937500000,4,-54625.1210937500,-37767.0351562500,-50814.0039062500,-2470.0302734375,-79642.0156250000,-44135.9843750000,-73426.3203125000,-34530.3398437500,-102070.0390625000,-98780.5156250000,-64067.6210937500,-57686.5625000000,-79498.4140625000,-51541.1484375000,-65894.7968750000,-67451.0468750000,,,
0.5976562500,4,-54620.6445312500,-37764.4531250000,-50810.6718750000,-2471.4416503906,-79646.0468750000,-44139.7304687500,-73442.7109375000,-34533.1875000000,-102070.0390625000,-98787.5234375000,-64069.2617187500,-57688.2304687500,-79504.0703125000,-51545.5273437500,-65900.1718750000,-67453.4062500000,,,
0.6015625000,4,-54604.4843750000,-37750.8984375000,-50792.9062500000,-2458.6777343750,-79638.4062500000,-44133.0898437500,-73455.9140625000,-34526.9843750000,-102070.0390625000,-98778.9921875000,-64058.8710937500,-57677.0468750000,-79492.4062500000,-51537.6796875000,-65890.4531250000,-67441.2500000000,,,
0.6054687500,4,-54592.0742187500,-37739.2187500000,-50780.8125000000,-2447.0576171875,-79622.0156250000,-44118.3632812500,-73421.7656250000,-34513.8320312500,-102070.0390625000,-98765.6171875000,-64047.1679687500,-57665.6484375000,-79480.6484375000,-51524.2929687500,-65882.7265625000,-67429.2968750000,,,
0.6093750000,4,-54597.3437500000,-37749.1601562500,-50786.4960937500,-2451.3527832031,-79617.6093750000,-44110.8320312500,-73381.6640625000,-34512.3593750000,-102070.0390625000,-98759.5859375000,-64046.1796875000,-57666.8906250000,-79480.2968750000,-51522.6757812500,-65883.2812500000,-67431.5859375000,,,
0.6132812500,4,-54604.6445312500,-37759.1992187500,-50796.3750000000,-2459.1889648438,-79623.7500000000,-44110.1875000000,-73378.1015625000,-34517.6250000000,-102070.0390625000,-98762.3984375000,-64051.6914062500,-57673.1914062500,-79485.9140625000,-51528.7343750000,-65890.7578125000,-67436.1953125000,,,
0.6171875000,4,-54603.6210937500,-37756.7421875000,-50793.5156250000,-2459.0429687500,-79625.5625000000,-44109.4218750000,-73371.0312500000,-34517.4062500000,-102070.0390625000,-98766.8750000000,-64053.6523437500,-57674.1406250000,-79487.6562500000,-51532.6796875000,-65893.5546875000,-67434.7734375000,,,
0.6210937500,4,-54591.3710937500,-37742.1640625000,-50778.9023437500,-2448.7246093750,-79619.0234375000,-44100.6718750000,-73355.1015625000,-34505.8710937500,-102070.0390625000,-98760.6718750000,-64044.6250000000,-57664.6250000000,-79477.9609375000,-51524.8789062500,-65884.6250000000,-67422.1484375000,,,
0.6250000000,5,-54578.2773437500,-37729.1210937500,-50764.8984375000,-2437.1166992188,-79611.3046875000,-44089.7109375000,-73355.7343750000,-34495.4687500000,-102070.0390625000,-98752.4062500000,-64035.4375000000,-57655.6718750000,-79465.4765625000,-51513.1992187500,-65873.9765625000,-67414.5390625000,,,
0.6289062500,5,-54584.3359375000,-37736.9921875000,-50774.8750000000,-2443.0058593750,-79614.2109375000,-44092.1445312500,-73339.1250000000,-34494.1796875000,-102070.0390625000,-98752.6640625000,-64036.5937500000,-57658.4335937500,-79475.1640625000,-51517.8828125000,-65879.5937500000,-67426.2968750000,,,
0.6328125000,5,-54600.4960937500,-37757.7265625000,-50795.0585937500,-2459.5539550781,-79625.1562500000,-44103.0820312500,-73343.7734375000,-34501.4062500000,-102070.0390625000,-98762.1406250000,-64045.4375000000,-57668.9453125000,-79484.9296875000,-51527.2382812500,-65887.1328125000,-67438.7578125000,,,
0.6367187500,5,-54603.1250000000,-37757.6171875000,-50799.3085937500,-2460.9045410156,-79629.0078125000,-44110.2968750000,-73378.2109375000,-34500.9453125000,-102070.0390625000,-98767.1562500000,-64046.3007812500,-57669.3085937500,-79486.5234375000,-51530.2812500000,-65885.5468750000,-67437.7421875000,,,
0.6406250000,5,-54597.9531250000,-37746.8984375000,-50790.0468750000,-2451.9733886719,-79618.5781250000,-44104.7148437500,-73391.0546875000,-34497.1132812500,-102070.0390625000,-98759.7343750000,-64035.3398437500,-57658.3710937500,-79476.4609375000,-51523.2617187500,-65872.4531250000,-67423.9921875000,,,
0.6445312500,5,-54597.0390625000,-37747.6875000000,-50781.5898437500,-2448.6152343750,-79605.2500000000,-44095.9765625000,-73371.5390625000,-34489.6171875000,-102070.0390625000,-98750.4218750000,-64027.0546875000,-57652.3359375000,-79466.7421875000,-51515.2890625000,-65862.7421875000,-67413.2656250000,,,
0.6484375000,5,-54599.9101562500,-37758.0429687500,-50784.8984375000,-2452.0341796875,-79598.0156250000,-44090.0507812500,-73361.4375000000,-34490.6992187500,-102070.0390625000,-98746.3359375000,-64030.6171875000,-57656.2890625000,-79471.1953125000,-51517.8710937500,-65863.8671875000,-67418.8984375000,,,
0.6523437500,5,-54599.6054687500,-37764.2968750000,-50791.5429687500,-2457.5097656250,-79612.0390625000,-44094.2968750000,-73352.5078125000,-34497.6835937500,-102070.0390625000,-98748.4062500000,-64038.9882812500,-57665.3085937500,-79476.7031250000,-51523.4921875000,-65867.0000000000,-67420.1718750000,,,
0.6562500000,5,-54587.2695312500,-37748.2968750000,-50783.2070312500,-2450.4282226563,-79611.2578125000,-44090.4648437500,-73342.2656250000,-34496.6015625000,-102070.0390625000,-98749.1093750000,-64037.8203125000,-57665.7187500000,-79473.7968750000,-51523.8085937500,-65877.0156250000,-67423.0781250000,,,
0.6601562500,5,-54569.0781250000,-37727.7812500000,-50765.4453125000,-2435.9484863281,-79606.6718750000,-44082.3125000000,-73357.4609375000,-34491.9023437500,-102070.0390625000,-98744.7187500000,-64031.1914062500,-57659.8320312500,-79465.6953125000,-51517.4804687500,-65874.1562500000,-67416.8515625000,,,
0.6640625000,5,-54550.7773437500,-37711.8554687500,-50751.0507812500,-2423.6713867188,-79602.0312500000,-44076.1679687500,-73352.3125000000,-34487.6835937500,-102070.0390625000,-98739.3906250000,-64025.1796875000,-57654.1132812500,-79458.6953125000,-51512.6875000000,-65872.0937500000,-67413.7500000000,,,
0.6679687500,5,-54545.0820312500,-37710.8789062500,-50746.4023437500,-2422.9899902344,-79601.6171875000,-44073.5898437500,-73321.8437500000,-34486.8554687500,-102070.0390625000,-98739.1406250000,-64025.6523437500,-57656.3984375000,-79460.9218750000,-51513.7695312500,-65876.3515625000,-67422.3359375000,,,
0.6718750000,5,-54549.6484375000,-37720.7343750000,-50756.5625000000,-2431.2397460938,-79612.4531250000,-44081.3281250000,-73328.2578125000,-34494.1054687500,-102070.0390625000,-98745.0312500000,-64035.1679687500,-57667.0234375000,-79469.7734375000,-51520.2187500000,-65886.1093750000,-67434.8203125000,,,
0.6757812500,5,-54548.9531250000,-37720.9179687500,-50758.5468750000,-2433.2229003906,-79617.0234375000,-44088.3359375000,-73350.8437500000,-34502.1875000000,-102070.0390625000,-98756.8125000000,-64043.3320312500,-57673.7500000000,-79473.0078125000,-51525.5351562500,-65890.5000000000,-67440.0078125000,,,
0.6796875000,5,-54534.4492187500,-37704.8203125000,-50747.2031250000,-2426.5793457031,-79623.2578125000,-44091.1835937500,-73362.5234375000,-34502.3945312500,-102070.0390625000,-98758.9921875000,-64044.3320312500,-57673.2773437500,-79477.7031250000,-51526.7773437500,-65890.9765625000,-67440.9296875000,,,
0.6835937500,5,-54516.0898437500,-37687.8476562500,-50733.2343750000,-2415.4702148438,-79619.3593750000,-44086.9960937500,-73373.6953125000,-34496.9531250000,-102070.0390625000,-98754.9765625000,-64038.9296875000,-57667.6679687500,-79473.6562500000,-51517.6523437500,-65879.5859375000,-67433.3046875000,,,
0.6875000000,5,-54501.2421875000,-37677.1757812500,-50722.2734375000,-2405.5537109375,-79611.8671875000,-44080.4765625000,-73365.1796875000,-34492.7695312500,-102070.0390625000,-98746.5390625000,-64032.0312500000,-57662.3242187500,-79470.2109375000,-51507.9062500000,-65869.8046875000,-67430.1718750000,,,
0.6914062500,5,-54502.2031250000,-37680.5117187500,-50726.2890625000,-2406.9895019531,-79610.5546875000,-44078.0781250000,-73340.3515625000,-34491.8554687500,-102070.0390625000,-98743.1328125000,-64031.9101562500,-57663.9335937500,-79468.9765625000,-51508.6835937500,-65867.3671875000,-67432.1484375000,,,
0.6953125000,5,-54492.5937500000,-37673.0742187500,-50722.0664062500,-2404.7626953125,-79609.9687500000,-44079.2343750000,-73359.7500000000,-34493.7890625000,-102070.0390625000,-98746.5546875000,-64031.8359375000,-57666.3046875000,-79468.7500000000,-51512.4570312500,-65870.8359375000,-67431.6875000000,,,
0.6992187500,5,-54465.0429687500,-37648.3867187500,-50698.9843750000,-2388.5798339844,-79603.8750000000,-44075.4843750000,-73390.5312500000,-34491.2226562500,-102070.0390625000,-98743.5390625000,-64027.0781250000,-57660.0000000000,-79463.4062500000,-51507.8085937500,-65865.3359375000,-67424.8984375000,,,
0.7031250000,5,-54439.2734375000,-37625.2070312500,-50676.6328125000,-2372.0439453125,-79593.6484375000,-44067.3476562500,-73381.4296875000,-34480.1640625000,-102070.0390625000,-98734.6796875000,-64016.8945312500,-57649.8671875000,-79454.5000000000,-51497.6367187500,-65857.5703125000,-67412.1171875000,,,
0.7070312500,5,-54422.3125000000,-37612.0781250000,-50662.2382812500,-2361.5310058594,-79579.2343750000,-44055.5195312500,-73362.4062500000,-34468.9179687500,-102070.0390625000,-98722.3281250000,-64007.8789062500,-57641.7734375000,-79446.7265625000,-51487.9140625000,-65850.3593750000,-67406.9453125000,,,
0.7109375000,5,-54417.8476562500,-37613.0507812500,-50661.8476562500,-2359.1582031250,-79586.6796875000,-44053.2929687500,-73355.4296875000,-34470.0156250000,-102070.0390625000,-98717.6328125000,-64007.8046875000,-57642.6992187500,-79446.4453125000,-51489.7500000000,-65851.0859375000,-67410.3046875000,,,
0.7148437500,5,-54411.5195312500,-37609.5000000000,-50659.5351562500,-2358.2822265625,-79584.1015625000,-44049.2890625000,-73334.5390625000,-34467.9335937500,-102070.0390625000,-98717.6562500000,-64006.6250000000,-57644.1093750000,-79441.2343750000,-51496.1132812500,-65855.2109375000,-67407.3515625000,,,
0.7187500000,5,-54386.1992187500,-37587.5742187500,-50638.0976562500,-2343.7416992188,-79580.2421875000,-44038.5937500000,-73332.4218750000,-34459.3320312500,-102070.0390625000,-98710.0390625000,-63995.5390625000,-57634.9257812500,-79430.9531250000,-51491.7460937500,-65848.9687500000,-67391.8828125000,,,
0.7226562500,5,-54356.4960937500,-37561.1093750000,-50610.8906250000,-2322.0468750000,-79567.5234375000,-44020.0273437500,-73326.6171875000,-34445.0703125000,-102070.0390625000,-98696.7656250000,-63978.7343750000,-57620.3476562500,-79415.7109375000,-51476.8906250000,-65834.4296875000,-67374.9843750000,,,
0.7265625000,5,-54343.8671875000,-37550.1328125000,-50599.8046875000,-2312.0935058594,-79554.3828125000,-44006.5195312500,-73287.3281250000,-34430.5195312500,-102070.0390625000,-98684.2656250000,-63968.0625000000,-57610.3085937500,-79404.5000000000,-51464.2343750000,-65824.5781250000,-67364.8359375000,,,
0.7304687500,5,-54350.0976562500,-37557.5898437500,-50605.8398437500,-2316.3278808594,-79552.2656250000,-44003.0625000000,-73265.3281250000,-34430.0078125000,-102070.0390625000,-98681.0312500000,-63968.1875000000,-57613.3398437500,-79405.5859375000,-51463.8593750000,-65823.0312500000,-67370.5156250000,,,
0.7343750000,5,-54346.9218750000,-37561.8007812500,-50609.1992187500,-2319.4062500000,-79552.3750000000,-44006.3242187500,-73292.0468750000,-34434.4609375000,-102070.0390625000,-98685.1328125000,-63971.2148437500,-57617.7421875000,-79407.9687500000,-51471.0000000000,-65828.7265625000,-67375.5937500000,,,
0.7382812500,5,-54331.9531250000,-37553.7578125000,-50600.8398437500,-2315.4396972656,-79548.2500000000,-44005.4960937500,-73313.1015625000,-34434.8359375000,-102070.0390625000,-98685.7500000000,-63968.8789062500,-57614.3710937500,-79405.7656250000,-51471.3789062500,-65827.8828125000,-67368.0625000000,,,
0.7421875000,5,-54312.8632812500,-37537.2226562500,-50579.1445312500,-2301.7387695313,-79535.3281250000,-43997.6015625000,-73327.5078125000,-34427.5742187500,-102070.0390625000,-98675.7109375000,-63958.7929687500,-57604.6757812500,-79398.6875000000,-51457.4335937500,-65815.8281250000,-67356.0000000000,,,
0.7460937500,5,-54305.0156250000,-37531.3710937500,-50574.9843750000,-2294.2922363281,-79516.8828125000,-43984.8007812500,-73336.5703125000,-34418.0351562500,-102070.0390625000,-98664.6640625000,-63949.7148437500,-57593.5429687500,-79391.4843750000,-51442.1250000000,-65801.8828125000,-67351.1953125000,,,
0.7500000000,6,-54309.8320312500,-37537.0898437500,-50588.4648437500,-2297.0541992188,-79523.9062500000,-43984.7500000000,-73323.3671875000,-34416.0273437500,-102070.0390625000,-98658.3593750000,-63946.3710937500,-57592.3359375000,-79390.3437500000,-51436.6640625000,-65797.7968750000,-67351.8671875000,,,
0.7539062500,6,-54309.6992187500,-37539.8515625000,-50586.2031250000,-2305.1457519531,-79527.2500000000,-43985.0429687500,-73317.7109375000,-34417.4492187500,-102070.0390625000,-98658.1093750000,-63947.1953125000,-57595.0742187500,-79391.0312500000,-51433.9023437500,-65799.9687500000,-67355.9296875000,,,
0.7578125000,6,-54301.3046875000,-37532.5859375000,-50569.1679687500,-2301.5808105469,-79526.9687500000,-43981.6132812500,-73336.0937500000,-34416.9140625000,-102070.0390625000,-98657.4296875000,-63943.8984375000,-57591.2187500000,-79385.0625000000,-51429.9726562500,-65795.9218750000,-67346.2890625000,,,
0.7617187500,6,-54282.3476562500,-37516.9414062500,-50546.7773437500,-2285.7871093750,-79511.0937500000,-43968.1289062500,-73314.7500000000,-34404.4414062500,-102070.0390625000,-98645.5468750000,-63927.9335937500,-57577.0312500000,-79368.5234375000,-51422.7070312500,-65784.0937500000,-67326.2265625000,,,
0.7656250000,6,-54269.5585937500,-37506.1601562500,-50530.8515625000,-2273.4611816406,-79491.6718750000,-43950.0234375000,-73269.4531250000,-34387.6015625000,-102070.0390625000,-98627.5078125000,-63912.2148437500,-57564.1093750000,-79350.8593750000,-51413.5195312500,-65770.7421875000,-67307.6953125000,,,
0.7695312500,6,-54270.3242187500,-37513.9101562500,-50534.6210937500,-2272.6093750000,-79485.3906250000,-43939.6601562500,-73246.7265625000,-34384.5117187500,-102070.0390625000,-98617.6875000000,-63907.3476562500,-57563.1835937500,-79347.5859375000,-51404.5781250000,-65768.0703125000,-67307.7656250000,,,
0.7734375000,6,-54283.3789062500,-37527.4765625000,-50548.3359375000,-2281.1147460938,-79477.5078125000,-43933.3789062500,-73231.3906250000,-34387.4570312500,-102070.0390625000,-98616.8359375000,-63912.5312500000,-57570.4218750000,-79346.7890625000,-51398.7734375000,-65770.3437500000,-67312.3828125000,,,
0.7773437500,6,-54285.8632812500,-37524.6406250000,-50544.3554687500,-2280.2385253906,-79482.8515625000,-43934.3515625000,-73238.5625000000,-34387.0898437500,-102070.0390625000,-98616.1562500000,-63907.8710937500,-57566.2734375000,-79349.3984375000,-51400.6953125000,-65760.0390625000,-67302.3281250000,,,
0.7812500000,6,-54277.9648437500,-37511.1718750000,-50546.3164062500,-2269.4213867188,-79470.8750000000,-43927.4062500000,-73263.6953125000,-34377.0898437500,-102070.0390625000,-98609.2656250000,-63896.5195312500,-57554.7500000000,-79340.9843750000,-51403.2851562500,-65759.7421875000,-67295.6718750000,,,
0.7851562500,6,-54268.2695312500,-37505.8554687500,-50538.7734375000,-2263.8972167969,-79459.3906250000,-43919.8750000000,-73266.2265625000,-34368.8515625000,-102070.0390625000,-98600.7109375000,-63888.1367187500,-57544.6875000000,-79331.8515625000,-51405.5117187500,-65756.6093750000,-67286.3515625000,,,
0.7890625000,6,-54268.3046875000,-37516.3789062500,-50526.4687500000,-2268.4479980469,-79453.1406250000,-43920.0429687500,-73253.1718750000,-34366.2226562500,-102070.0390625000,-98598.5546875000,-63886.9648437500,-57544.4570312500,-79334.8281250000,-51408.9101562500,-65758.9296875000,-67289.0937500000,,,
0.7929687500,6,-54283.1757812500,-37541.5664062500,-50507.7929687500,-2285.1057128906,-79464.8437500000,-43932.1757812500,-73285.8671875000,-34378.3437500000,-102070.0390625000,-98608.9140625000,-63898.8437500000,-57555.4453125000,-79345.3828125000,-51415.3203125000,-65766.0859375000,-67301.9375000000,,,
0.7968750000,6,-54282.2968750000,-37544.5859375000,-50465.0742187500,-2287.2714843750,-79470.3906250000,-43937.6992187500,-73316.1875000000,-34382.4453125000,-102070.0390625000,-98612.8437500000,-63901.3750000000,-57556.7460937500,-79346.0000000000,-51408.0585937500,-65763.3203125000,-67300.2578125000,,,
0.8007812500,6,-54270.8710937500,-37533.2578125000,-50422.8398437500,-2276.1867675781,-79462.9609375000,-43930.8984375000,-73319.5859375000,-34374.1328125000,-102070.0390625000,-98606.9765625000,-63894.4140625000,-57547.9843750000,-79336.5234375000,-51399.2968750000,-65756.0078125000,-67289.3750000000,,,
0.8046875000,6,-54264.3984375000,-37521.1875000000,-50407.8007812500,-2265.1262207031,-79453.7109375000,-43921.0039062500,-73323.2812500000,-34365.0429687500,-102070.0390625000,-98598.8906250000,-63886.0781250000,-57540.9765625000,-79328.2968750000,-51395.5117187500,-65754.8906250000,-67283.7109375000,,,
0.8085937500,6,-54271.8085937500,-37525.6992187500,-50431.5976562500,-2264.8586425781,-79452.8671875000,-43916.3554687500,-73302.7656250000,-34359.0312500000,-102070.0390625000,-98593.7031250000,-63885.6523437500,-57539.4062500000,-79325.9375000000,-51398.1289062500,-65755.0234375000,-67283.4296875000,,,
0.8125000000,6,-54286.2773437500,-37541.4218750000,-50473.7343750000,-2276.3691406250,-79457.3750000000,-43919.1445312500,-73274.1250000000,-34361.2460937500,-102070.0390625000,-98597.9609375000,-63892.0039062500,-57547.7929687500,-79325.3750000000,-51404.3203125000,-65766.5468750000,-67292.8359375000,,,
0.8164062500,6,-54291.9101562500,-37546.0585937500,-50494.1640625000,-2281.4919433594,-79463.1406250000,-43922.7578125000,-73281.2343750000,-34365.8710937500,-102070.0390625000,-98606.5390625000,-63896.4453125000,-57553.6210937500,-79331.6562500000,-51415.4687500000,-65776.9609375000,-67297.6093750000,,,
0.8203125000,6,-54284.9609375000,-37535.2890625000,-50488.6640625000,-2271.0031738281,-79455.0937500000,-43917.5859375000,-73276.7031250000,-34359.3242187500,-102070.0390625000,-98604.0703125000,-63887.9648437500,-57545.1132812500,-79322.7500000000,-51409.2500000000,-65766.1796875000,-67283.0937500000,,,
0.8242187500,6,-54276.5312500000,-37524.6914062500,-50471.6289062500,-2257.2536621094,-79435.3359375000,-43901.9140625000,-73230.3593750000,-34342.4843750000,-102070.0390625000,-98588.6562500000,-63872.2421875000,-57532.8359375000,-79308.3203125000,-51393.9921875000,-65750.8593750000,-67264.3203125000,,,
0.8281250000,6,-54277.8085937500,-37528.8867187500,-50471.2421875000,-2258.8112792969,-79428.3906250000,-43893.6992187500,-73194.5000000000,-34334.0273437500,-102070.0390625000,-98580.0625000000,-63865.0039062500,-57529.0898437500,-79304.1718750000,-51384.8632812500,-65746.6250000000,-67261.1093750000,,,
0.8320312500,6,-54289.3437500000,-37547.7343750000,-50486.0117187500,-2270.9301757813,-79431.4531250000,-43894.2734375000,-73175.1406250000,-34335.7304687500,-102070.0390625000,-98579.8828125000,-63865.4062500000,-57534.3320312500,-79307.4531250000,-51383.3671875000,-65746.9218750000,-67264.8281250000,,,
0.8359375000,6,-54297.4726562500,-37555.2929687500,-50493.9101562500,-2279.1435546875,-79432.2421875000,-43896.8281250000,-73160.1718750000,-34337.6054687500,-102070.0390625000,-98585.1093750000,-63868.6171875000,-57539.3085937500,-79310.6328125000,-51387.1406250000,-65746.6015625000,-67265.3515625000,,,
0.8398437500,6,-54294.9882812500,-37547.8320312500,-50484.1406250000,-2276.0529785156,-79427.6328125000,-43897.5703125000,-73170.2656250000,-34334.9648437500,-102070.0390625000,-98587.0234375000,-63864.9179687500,-57537.9960937500,-79309.5859375000,-51383.3671875000,-65732.6875000000,-67253.9609375000,,,
0.8437500000,6,-54287.7109375000,-37542.8437500000,-50473.3359375000,-2267.8762207031,-79416.7578125000,-43893.2265625000,-73175.2031250000,-34328.7343750000,-102070.0390625000,-98584.2968750000,-63859.2734375000,-57533.8476562500,-79296.7812500000,-51373.9375000000,-65725.4531250000,-67248.4062500000,,,
0.8476562500,6,-54295.1953125000,-37553.2226562500,-50476.0234375000,-2273.7775878906,-79412.9609375000,-43893.4453125000,-73150.7578125000,-34327.0820312500,-102070.0390625000,-98583.5937500000,-63861.8515625000,-57536.6953125000,-79303.9843750000,-51378.7812500000,-65726.4687500000,-67254.3671875000,,,
0.8515625000,6,-54312.8632812500,-37569.9765625000,-50483.6640625000,-2285.8723144531,-79418.9062500000,-43900.3320312500,-73152.5703125000,-34332.8710937500,-102070.0390625000,-98588.4687500000,-63869.9453125000,-57545.6367187500,-79316.5703125000,-51386.9218750000,-65734.0625000000,-67266.3750000000,,,
0.8554687500,6,-54316.7812500000,-37575.9648437500,-50483.8828125000,-2291.2624511719,-79424.3359375000,-43905.2734375000,-73184.1953125000,-34340.7187500000,-102070.0390625000,-98593.8593750000,-63874.3125000000,-57550.5429687500,-79322.3593750000,-51390.5351562500,-65733.3046875000,-67272.5546875000,,,
0.8593750000,6,-54310.8906250000,-37569.9648437500,-50474.8789062500,-2288.5856933594,-79424.8828125000,-43905.6132812500,-73198.4687500000,-34341.7304687500,-102070.0390625000,-98595.6484375000,-63874.3476562500,-57550.1289062500,-79321.7890625000,-51386.4726562500,-65726.0859375000,-67269.8203125000,,,
0.8632812500,6,-54300.5234375000,-37560.8515625000,-50461.5078125000,-2279.5693359375,-79419.7968750000,-43900.6250000000,-73211.2656250000,-34335.7421875000,-102070.0390625000,-98589.1562500000,-63866.6484375000,-57540.9648437500,-79316.1562500000,-51373.2578125000,-65715.7343750000,-67260.3750000000,,,
0.8671875000,6,-54301.0976562500,-37563.1054687500,-50462.8710937500,-2279.5693359375,-79422.7812500000,-43900.5039062500,-73224.0078125000,-34337.4492187500,-102070.0390625000,-98585.5859375000,-63866.0156250000,-57540.8085937500,-79316.8125000000,-51361.7695312500,-65712.1328125000,-67264.0781250000,,,
0.8710937500,6,-54315.0273437500,-37577.6328125000,-50478.9179687500,-2290.8974609375,-79432.0156250000,-43908.7382812500,-73217.0937500000,-34346.5625000000,-102070.0390625000,-98588.7265625000,-63875.7500000000,-57548.8007812500,-79325.9375000000,-51364.6054687500,-65718.3515625000,-67272.8984375000,,,
0.8750000000,7,-54323.6562500000,-37583.5585937500,-50490.0781250000,-2297.4802246094,-79441.9765625000,-43915.7617187500,-73235.3828125000,-34356.2226562500,-102070.0390625000,-98596.9765625000,-63884.3632812500,-57557.0156250000,-79333.5625000000,-51375.1914062500,-65739.9375000000,-67285.7421875000,,,
0.8789062500,7,-54318.2187500000,-37578.2148437500,-50487.7304687500,-2293.1120605469,-79448.2578125000,-43918.9960937500,-73271.5234375000,-34362.9375000000,-102070.0390625000,-98601.4140625000,-63888.4023437500,-57557.9648437500,-79333.9453125000,-51387.6523437500,-65754.0000000000,-67288.3750000000,,,
0.8828125000,7,-54306.2304687500,-37569.3085937500,-50474.7460937500,-2284.5703125000,-79444.8281250000,-43915.5781250000,-73269.9375000000,-34358.8398437500,-102070.0390625000,-98600.4531250000,-63883.6679687500,-57551.7343750000,-79327.2656250000,-51392.9062500000,-65754.9765625000,-67282.4140625000,,,
0.8867187500,7,-54300.1601562500,-37565.4765625000,-50464.3046875000,-2278.7905273438,-79434.2187500000,-43907.2695312500,-73249.0234375000,-34349.9179687500,-102070.0390625000,-98591.5781250000,-63875.6132812500,-57542.7656250000,-79319.6953125000,-51385.5468750000,-65743.7656250000,-67273.9296875000,,,
0.8906250000,7,-54309.4335937500,-37577.3046875000,-50471.6796875000,-2284.5095214844,-79436.3671875000,-43906.4296875000,-73247.0390625000,-34348.7890625000,-102070.0390625000,-98587.5468750000,-63874.2265625000,-57541.5742187500,-79320.9687500000,-51377.0039062500,-65735.4140625000,-67275.0703125000,,,
0.8945312500,7,-54315.3203125000,-37584.0820312500,-50480.0742187500,-2288.5976562500,-79438.9843750000,-43906.5390625000,-73237.6484375000,-34349.0078125000,-102070.0390625000,-98588.7500000000,-63875.1992187500,-57543.5937500000,-79322.7890625000,-51372.5742187500,-65730.1640625000,-67272.9218750000,,,
0.8984375000,7,-54303.1289062500,-37576.0507812500,-50467.0312500000,-2283.8037109375,-79433.1562500000,-43901.0859375000,-73232.6796875000,-34342.2421875000,-102070.0390625000,-98585.0546875000,-63868.1328125000,-57538.1679687500,-79316.2968750000,-51362.9648437500,-65719.8515625000,-67262.9687500000,,,
0.9023437500,7,-54290.3046875000,-37559.8320312500,-50447.8789062500,-2268.4357910156,-79420.8046875000,-43888.7851562500,-73230.8671875000,-34330.0507812500,-102070.0390625000,-98573.9062500000,-63855.2226562500,-57525.5117187500,-79304.8125000000,-51346.9375000000,-65704.7968750000,-67246.9765625000,,,
0.9062500000,7,-54282.4687500000,-37550.9843750000,-50434.3359375000,-2258.2272949219,-79406.0000000000,-43876.3515625000,-73189.0156250000,-34315.7539062500,-102070.0390625000,-98561.4453125000,-63843.3085937500,-57517.3593750000,-79292.5625000000,-51335.4882812500,-65697.1953125000,-67238.1796875000,,,
0.9101562500,7,-54288.1367187500,-37557.7265625000,-50442.6601562500,-2262.7778320313,-79403.9218750000,-43873.9023437500,-73142.5234375000,-34311.9687500000,-102070.0390625000,-98558.4296875000,-63841.0820312500,-57518.9296875000,-79294.0781250000,-51338.4921875000,-65700.0000000000,-67243.7187500000,,,
0.9140625000,7,-54298.3476562500,-37563.2382812500,-50454.1953125000,-2268.8251953125,-79406.5000000000,-43877.8359375000,-73140.8437500000,-34315.1210937500,-102070.0390625000,-98564.2343750000,-63844.2109375000,-57523.1171875000,-79292.8671875000,-51343.0078125000,-65704.4453125000,-67248.7890625000,,,
0.9179687500,7,-54291.6562500000,-37553.5390625000,-50448.1953125000,-2262.6684570313,-79396.8750000000,-43872.1015625000,-73134.9843750000,-34309.3164062500,-102070.0390625000,-98559.8984375000,-63836.6406250000,-57515.6210937500,-79282.9453125000,-51336.7070312500,-65697.0234375000,-67239.5546875000,,,
0.9218750000,7,-54275.5820312500,-37538.7578125000,-50431.6601562500,-2249.8437500000,-79370.8828125000,-43856.2968750000,-73116.1250000000,-34296.6132812500,-102070.0390625000,-98549.3046875000,-63823.2187500000,-57505.7539062500,-79270.5625000000,-51321.3632812500,-65683.5156250000,-67225.0078125000,,,
0.9257812500,7,-54265.6640625000,-37533.1953125000,-50424.5781250000,-2242.1049804688,-79368.6718750000,-43853.0859375000,-73126.2031250000,-34294.0820312500,-102070.0390625000,-98540.1015625000,-63816.0781250000,-57499.1210937500,-79265.7578125000,-51309.9257812500,-65672.2578125000,-67219.3828125000,,,
0.9296875000,7,-54274.2421875000,-37544.6445312500,-50432.5117187500,-2246.4609375000,-79368.0000000000,-43852.1718750000,-73122.0781250000,-34293.6445312500,-102070.0390625000,-98536.1171875000,-63815.3593750000,-57499.2187500000,-79267.6796875000,-51304.0703125000,-65668.7890625000,-67222.0703125000,,,
0.9335937500,7,-54289.9257812500,-37558.0429687500,-50447.0039062500,-2258.8356933594,-79376.3828125000,-43859.6445312500,-73128.2109375000,-34299.6914062500,-102070.0390625000,-98541.2734375000,-63823.4257812500,-57506.9453125000,-79277.6093750000,-51310.2031250000,-65677.3359375000,-67230.3125000000,,,
0.9375000000,7,-54296.2890625000,-37558.6640625000,-50447.6718750000,-2261.5976562500,-79385.7812500000,-43867.3593750000,-73169.7031250000,-34307.2343750000,-102070.0390625000,-98550.0859375000,-63829.6093750000,-57512.0781250000,-79283.7500000000,-51318.2460937500,-65681.9218750000,-67234.4062500000,,,
0.9414062500,7,-54287.9804687500,-37548.9414062500,-50440.3359375000,-2251.3525390625,-79381.6875000000,-43865.5703125000,-73180.6406250000,-34301.3828125000,-102070.0390625000,-98545.9921875000,-63821.8085937500,-57503.4882812500,-79277.9140625000,-51310.9687500000,-65673.5156250000,-67223.8359375000,,,
0.9453125000,7,-54274.8515625000,-37538.2929687500,-50425.2226562500,-2238.9777832031,-79371.0390625000,-43854.4843750000,-73153.0546875000,-34289.5546875000,-102070.0390625000,-98535.8671875000,-63810.4335937500,-57491.0429687500,-79267.2656250000,-51302.1875000000,-65663.2890625000,-67213.5937500000,,,
0.9492187500,7,-54275.9570312500,-37543.3789062500,-50430.1406250000,-2242.3361816406,-79374.5078125000,-43855.3476562500,-73139.3046875000,-34290.2500000000,-102070.0390625000,-98534.6796875000,-63812.7421875000,-57492.6484375000,-79271.0000000000,-51300.3007812500,-65665.2656250000,-67220.8437500000,,,
0.9531250000,7,-54289.4414062500,-37563.5664062500,-50450.2539062500,-2257.6674804688,-79386.4453125000,-43864.5234375000,-73141.1562500000,-34301.0546875000,-102070.0390625000,-98543.1250000000,-63823.5000000000,-57503.1484375000,-79280.8281250000,-51311.1406250000,-65674.1484375000,-67235.1875000000,,,
0.9570312500,7,-54296.5703125000,-37569.1992187500,-50457.7226562500,-2261.2812500000,-79389.1250000000,-43869.3164062500,-73140.0468750000,-34309.4609375000,-102070.0390625000,-98550.5078125000,-63829.6328125000,-57508.9648437500,-79285.8906250000,-51315.8984375000,-65680.3125000000,-67238.7890625000,,,
0.9609375000,7,-54297.2539062500,-37561.9960937500,-50450.8867187500,-2254.5769042969,-79380.4609375000,-43865.8750000000,-73155.5390625000,-34308.3671875000,-102070.0390625000,-98548.5468750000,-63824.4140625000,-57503.8789062500,-79281.4531250000,-51312.2343750000,-65673.5468750000,-67231.4140625000,,,
0.9648437500,7,-54301.7539062500,-37563.5664062500,-50450.0703125000,-2253.1044921875,-79363.8671875000,-43860.3867187500,-73160.4687500000,-34306.8085937500,-102070.0390625000,-98545.9609375000,-63820.6289062500,-57498.1601562500,-79275.2421875000,-51305.1054687500,-65661.9687500000,-67231.2421875000,,,
0.9687500000,7,-54296.0820312500,-37563.3242187500,-50455.6406250000,-2256.9130859375,-79374.4375000000,-43870.0234375000,-73151.9218750000,-34312.1015625000,-102070.0390625000,-98550.2734375000,-63826.6015625000,-57504.9257812500,-79287.7890625000,-51312.7578125000,-65670.9218750000,-67241.1015625000,,,
0.9726562500,7,-54282.7851562500,-37560.9257812500,-50459.1210937500,-2257.0104980469,-79381.3750000000,-43876.7500000000,-73170.3437500000,-34318.2578125000,-102070.0390625000,-98554.9140625000,-63834.1210937500,-57512.1171875000,-79296.7578125000,-51321.7148437500,-65677.0078125000,-67251.8671875000,,,
0.9765625000,7,-54268.2304687500,-37552.0429687500,-50453.1367187500,-2253.7495117188,-79384.2421875000,-43879.1718750000,-73205.7031250000,-34320.5117187500,-102070.0390625000,-98558.2343750000,-63836.1679687500,-57512.7343750000,-79298.1953125000,-51322.8203125000,-65679.1953125000,-67251.3437500000,,,
0.9804687500,7,-54253.3398437500,-37538.7304687500,-50433.7265625000,-2239.8903808594,-79372.7343750000,-43872.5156250000,-73209.0078125000,-34310.7617187500,-102070.0390625000,-98551.2890625000,-63825.6171875000,-57502.3085937500,-79290.6406250000,-51309.0000000000,-65670.4375000000,-67237.4609375000,,,
0.9843750000,7,-54252.0507812500,-37533.7187500000,-50414.9648437500,-2230.4118652344,-79361.2500000000,-43861.8085937500,-73206.5859375000,-34299.5937500000,-102070.0390625000,-98541.5546875000,-63812.5625000000,-57489.9101562500,-79279.6250000000,-51294.6796875000,-65654.7734375000,-67222.7890625000,,,
0.9882812500,7,-54267.5390625000,-37544.8750000000,-50415.6093750000,-2232.6384277344,-79359.2890625000,-43857.8554687500,-73197.3125000000,-34296.5742187500,-102070.0390625000,-98536.3593750000,-63810.1757812500,-57486.6718750000,-79277.9375000000,-51291.4062500000,-65648.7031250000,-67221.6796875000,,,
0.9921875000,7,-54278.9414062500,-37560.8515625000,-50430.6367187500,-2243.7841796875,-79369.7187500000,-43861.1523437500,-73169.3984375000,-34299.1054687500,-102070.0390625000,-98538.9218750000,-63816.5898437500,-57492.5390625000,-79282.9687500000,-51306.8710937500,-65656.4296875000,-67230.2812500000,,,
0.9960937500,7,-54277.9531250000,-37563.8710937500,-50436.0507812500,-2249.1865234375,-79371.5937500000,-43862.6250000000,-73169.6171875000,-34301.7460937500,-102070.0390625000,-98546.7968750000,-63823.6328125000,-57497.7695312500,-79288.5468750000,-51326.2148437500,-65663.1250000000,-67233.8046875000,,,
1.0000000000,8,-54262.4531250000,-37549.7539062500,-50426.6718750000,-2240.7907714844,-79382.4531250000,-43862.8906250000,-73185.2500000000,-34298.7890625000,-102070.0390625000,-98545.5781250000,-63819.0585937500,-57490.7382812500,-79281.1328125000,-51327.2031250000,-65656.6015625000,-67223.8984375000,,,
1.0039062500,8,-54243.3984375000,-37534.3281250000,-50413.2382812500,-2228.1972656250,-79371.4218750000,-43848.9101562500,-73157.6406250000,-34285.3203125000,-102070.0390625000,-98534.3359375000,-63805.8945312500,-57476.7070312500,-79267.3593750000,-51313.6093750000,-65646.2343750000,-67208.3437500000,,,
1.0078125000,8,-54247.6914062500,-37539.5351562500,-50415.7187500000,-2231.3000488281,-79369.1718750000,-43842.9843750000,-73137.9296875000,-34283.1796875000,-102070.0390625000,-98527.9531250000,-63802.7304687500,-57476.4765625000,-79266.2656250000,-51306.8203125000,-65654.6875000000,-67209.5546875000,,,
1.0117187500,8,-54268.1328125000,-37555.8632812500,-50428.7890625000,-2240.9978027344,-79378.2343750000,-43847.6210937500,-73146.7031250000,-34289.3125000000,-102070.0390625000,-98530.6015625000,-63809.1054687500,-57483.8242187500,-79273.6015625000,-51309.1445312500,-65669.5937500000,-67218.6015625000,,,
1.0156250000,8,-54275.3632812500,-37559.5976562500,-50433.0585937500,-2243.1271972656,-79380.4453125000,-43850.4453125000,-73153.2656250000,-34290.1406250000,-102070.0390625000,-98532.6484375000,-63808.0234375000,-57485.3710937500,-79274.6015625000,-51310.2031250000,-65674.4843750000,-67216.6093750000,,,
1.0195312500,8,-54257.5117187500,-37541.6406250000,-50418.3984375000,-2231.6042480469,-79369.7031250000,-43845.6875000000,-73165.8359375000,-34280.6132812500,-102070.0390625000,-98528.9140625000,-63797.6914062500,-57476.4648437500,-79263.6015625000,-51301.5156250000,-65663.2656250000,-67205.3281250000,,,
1.0234375000,8,-54237.0937500000,-37520.7343750000,-50397.5156250000,-2215.3239746094,-79365.5781250000,-43842.3046875000,-73186.0703125000,-34274.2968750000,-102070.0390625000,-98522.3984375000,-63788.1757812500,-57469.1640625000,-79260.0625000000,-51293.4960937500,-65651.0234375000,-67198.9531250000,,,
1.0273437500,8,-54235.3789062500,-37521.0898437500,-50393.5742187500,-2212.7199707031,-79361.8593750000,-43841.3906250000,-73166.2187500000,-34270.1835937500,-102070.0390625000,-98518.9296875000,-63784.4414062500,-57466.6328125000,-79259.2812500000,-51290.1132812500,-65646.0234375000,-67201.7031250000,,,
1.0312500000,8,-54250.5390625000,-37539.4375000000,-50405.3046875000,-2223.7438964844,-79365.0312500000,-43845.2109375000,-73142.6171875000,-34270.4257812500,-102070.0390625000,-98521.7578125000,-63788.5664062500,-57472.8398437500,-79263.9062500000,-51294.8593750000,-65651.0390625000,-67209.3046875000,,,
1.0351562500,8,-54258.1953125000,-37546.3750000000,-50410.7187500000,-2230.6186523438,-79367.6015625000,-43849.0937500000,-73149.9687500000,-34275.7187500000,-102070.0390625000,-98527.9140625000,-63794.3203125000,-57478.3632812500,-79268.3750000000,-51306.0195312500,-65658.6328125000,-67216.4843750000,,,
1.0390625000,8,-54255.4062500000,-37540.0820312500,-50407.0703125000,-2230.7282714844,-79364.5546875000,-43848.8125000000,-73139.7578125000,-34274.7968750000,-102070.0390625000,-98531.2343750000,-63792.2304687500,-57476.5117187500,-79264.1953125000,-51308.4648437500,-65659.2890625000,-67209.2578125000,,,
1.0429687500,8,-54243.1796875000,-37525.7851562500,-50393.5273437500,-2222.0405273438,-79351.9609375000,-43837.6328125000,-73110.5703125000,-34266.8515625000,-102070.0390625000,-98522.8359375000,-63783.3085937500,-57467.8867187500,-79253.7968750000,-51299.8632812500,-65650.4921875000,-67197.4843750000,,,
1.0468750000,8,-54241.3046875000,-37524.7500000000,-50391.9570312500,-2217.9765625000,-79344.9765625000,-43829.6250000000,-73098.0625000000,-34264.8906250000,-102070.0390625000,-98515.6953125000,-63780.0234375000,-57466.9257812500,-79251.2500000000,-51294.0585937500,-65646.1250000000,-67196.3984375000,,,
1.0507812500,8,-54254.2382812500,-37538.7695312500,-50404.0742187500,-2224.6201171875,-79338.2734375000,-43825.1601562500,-73073.1171875000,-34268.3710937500,-102070.0390625000,-98513.4843750000,-63783.0195312500,-57471.0859375000,-79255.0468750000,-51290.0781250000,-65646.8281250000,-67201.0703125000,,,
1.0546875000,8,-54262.6484375000,-37551.6054687500,-50412.8125000000,-2231.8962402344,-79344.1406250000,-43832.3750000000,-73078.5390625000,-34276.6328125000,-102070.0390625000,-98518.0000000000,-63788.6757812500,-57478.8359375000,-79261.1093750000,-51293.9218750000,-65651.6875000000,-67205.7656250000,,,
1.0585937500,8,-54251.4023437500,-37541.7148437500,-50406.8867187500,-2226.2504882813,-79339.8828125000,-43832.4726562500,-73118.0390625000,-34276.0976562500,-102070.0390625000,-98518.6171875000,-63784.2851562500,-57473.2890625000,-79258.0546875000,-51287.5468750000,-65641.1250000000,-67193.9921875000,,,
1.0625000000,8,-54230.8906250000,-37524.7617187500,-50392.6484375000,-2212.7077636719,-79330.1484375000,-43826.0468750000,-73132.9921875000,-34265.1093750000,-102070.0390625000,-98509.8437500000,-63772.0781250000,-57461.3046875000,-79248.6953125000,-51277.2304687500,-65632.0078125000,-67186.0937500000,,,
1.0664062500,8,-54227.1796875000,-37521.1015625000,-50388.2812500000,-2208.7290039063,-79327.2421875000,-43823.7500000000,-73128.8437500000,-34261.1679687500,-102070.0390625000,-98507.4375000000,-63768.0507812500,-57457.1523437500,-79247.2031250000,-51274.0039062500,-65628.4062500000,-67186.2109375000,,,
1.0703125000,8,-54247.7890625000,-37539.3281250000,-50408.8593750000,-2221.8215332031,-79343.7031250000,-43835.2578125000,-73152.9453125000,-34272.6171875000,-102070.0390625000,-98517.6562500000,-63781.9218750000,-57468.9453125000,-79260.8125000000,-51285.5390625000,-65637.9843750000,-67207.6250000000,,,
1.0742187500,8,-54269.0468750000,-37561.6679687500,-50429.6289062500,-2239.2700195313,-79368.9140625000,-43857.1601562500,-73181.9453125000,-34291.3671875000,-102070.0390625000,-98536.7187500000,-63802.6093750000,-57485.9062500000,-79280.5625000000,-51307.5156250000,-65654.2890625000,-67228.3359375000,,,
1.0781250000,8,-54276.1757812500,-37568.5195312500,-50433.8242187500,-2246.5097656250,-79385.6562500000,-43870.1562500000,-73200.1250000000,-34304.0000000000,-102070.0390625000,-98552.8906250000,-63814.5312500000,-57494.2031250000,-79289.9296875000,-51323.0156250000,-65664.6093750000,-67236.7734375000,,,
1.0820312500,8,-54271.1523437500,-37562.8828125000,-50429.5546875000,-2242.2753906250,-79389.5156250000,-43873.7812500000,-73222.3984375000,-34305.6640625000,-102070.0390625000,-98557.3203125000,-63815.5781250000,-57491.3945312500,-79292.1093750000,-51323.3828125000,-65665.5312500000,-67235.2968750000,,,
1.0859375000,8,-54259.3984375000,-37554.7304687500,-50421.8515625000,-2234.7192382813,-79383.6875000000,-43864.7656250000,-73205.6250000000,-34299.0820312500,-102070.0390625000,-98545.8984375000,-63808.2656250000,-57483.6445312500,-79285.1015625000,-51309.6445312500,-65657.4140625000,-67229.5156250000,,,
1.0898437500,8,-54266.0898437500,-37560.4375000000,-50426.6210937500,-2237.5419921875,-79377.7343750000,-43859.0468750000,-73161.6328125000,-34295.2148437500,-102070.0390625000,-98541.4453125000,-63807.4140625000,-57482.1093750000,-79285.7734375000,-51302.2109375000,-65646.0390625000,-67232.2812500000,,,
1.0937500000,8,-54278.5273437500,-37574.4062500000,-50437.7187500000,-2246.1689453125,-79381.1796875000,-43861.4335937500,-73163.8281250000,-34299.1679687500,-102070.0390625000,-98547.2734375000,-63814.3007812500,-57487.2070312500,-79289.8828125000,-51308.0742187500,-65643.2031250000,-67239.3515625000,,,
1.0976562500,8,-54278.1835937500,-37570.6250000000,-50432.5585937500,-2243.3217773438,-79380.8046875000,-43863.1953125000,-73176.4062500000,-34300.9804687500,-102070.0390625000,-98551.8359375000,-63815.6171875000,-57488.7421875000,-79289.1406250000,-51318.2460937500,-65652.0703125000,-67239.6796875000,,,
1.1015625000,8,-54266.0312500000,-37555.1601562500,-50416.2695312500,-2231.8110351563,-79372.5546875000,-43859.5234375000,-73163.5234375000,-34294.0195312500,-102070.0390625000,-98548.7343750000,-63811.5039062500,-57485.8710937500,-79282.2187500000,-51325.1562500000,-65669.8515625000,-67233.0234375000,,,
1.1054687500,8,-54250.9765625000,-37547.1406250000,-50408.4062500000,-2225.9707031250,-79367.3281250000,-43854.1679687500,-73164.1796875000,-34290.6250000000,-102070.0390625000,-98544.7890625000,-63808.6679687500,-57483.3867187500,-79279.4531250000,-51325.8632812500,-65683.2343750000,-67230.5390625000,,,
1.1093750000,8,-54253.2890625000,-37551.5703125000,-50411.3046875000,-2227.6496582031,-79366.4687500000,-43853.7656250000,-73155.9296875000,-34288.9453125000,-102070.0390625000,-98539.2187500000,-63805.9921875000,-57481.8554687500,-79277.6171875000,-51321.7617187500,-65688.6406250000,-67234.0078125000,,,
1.1132812500,8,-54263.7187500000,-37563.0664062500,-50422.8750000000,-2232.8088378906,-79359.1875000000,-43851.7578125000,-73139.1484375000,-34287.6562500000,-102070.0390625000,-98540.2109375000,-63807.2070312500,-57483.4609375000,-79275.7187500000,-51320.0000000000,-65686.7656250000,-67234.9687500000,,,
1.1171875000,8,-54262.9765625000,-37562.7890625000,-50425.5156250000,-2232.7358398438,-79366.7500000000,-43855.7968750000,-73169.1093750000,-34292.0117187500,-102070.0390625000,-98543.8671875000,-63808.1562500000,-57484.7382812500,-79281.3906250000,-51323.9179687500,-65685.3125000000,-67231.3046875000,,,
1.1210937500,8,-54247.4609375000,-37547.9062500000,-50414.3828125000,-2218.9011230469,-79367.3828125000,-43851.7578125000,-73187.1718750000,-34284.2500000000,-102070.0390625000,-98538.5625000000,-63798.0820312500,-57473.3242187500,-79271.8046875000,-51314.9726562500,-65666.5156250000,-67209.5625000000,,,
1.1250000000,9,-54231.6562500000,-37530.5898437500,-50393.5273437500,-2204.3242187500,-79347.3984375000,-43835.9296875000,-73153.9687500000,-34266.1210937500,-102070.0390625000,-98521.8515625000,-63781.3007812500,-57459.5156250000,-79257.0781250000,-51300.5546875000,-65656.9296875000,-67200.8281250000,,,
1.1289062500,9,-54235.8906250000,-37532.9648437500,-50385.9101562500,-2204.8596191406,-79349.8984375000,-43833.4453125000,-73127.2578125000,-34261.2773437500,-102070.0390625000,-98516.2656250000,-63778.2617187500,-57457.6757812500,-79251.7890625000,-51293.5820312500,-65648.6640625000,-67202.9062500000,,,
1.1328125000,9,-54253.9609375000,-37549.1718750000,-50398.4531250000,-2214.7763671875,-79359.3125000000,-43838.2265625000,-73123.2968750000,-34267.8125000000,-102070.0390625000,-98522.1718750000,-63786.0351562500,-57465.5625000000,-79262.9687500000,-51300.7500000000,-65655.4921875000,-67210.5468750000,,,
1.1367187500,9,-54257.7304687500,-37553.1367187500,-50407.8710937500,-2220.0085449219,-79363.0468750000,-43841.7929687500,-73112.6875000000,-34272.0468750000,-102070.0390625000,-98529.4687500000,-63788.6640625000,-57468.4960937500,-79265.1718750000,-51304.0117187500,-65656.3593750000,-67210.1562500000,,,
1.1406250000,9,-54246.0273437500,-37544.1835937500,-50401.0703125000,-2214.8979492188,-79359.2968750000,-43841.6484375000,-73116.5781250000,-34270.7695312500,-102070.0390625000,-98530.2734375000,-63784.4921875000,-57463.7734375000,-79262.3125000000,-51302.9531250000,-65652.6484375000,-67201.8281250000,,,
1.1445312500,9,-54233.9453125000,-37535.6406250000,-50389.6328125000,-2206.4291992188,-79352.3515625000,-43833.7148437500,-73119.7187500000,-34263.5781250000,-102070.0390625000,-98521.8750000000,-63775.1562500000,-57452.7968750000,-79254.5234375000,-51292.6953125000,-65640.1640625000,-67190.0937500000,,,
1.1484375000,9,-54238.4570312500,-37540.6054687500,-50388.5976562500,-2208.5952148438,-79345.9609375000,-43824.5156250000,-73089.2656250000,-34257.5781250000,-102070.0390625000,-98513.1796875000,-63768.7812500000,-57447.3359375000,-79249.8281250000,-51288.2304687500,-65634.0390625000,-67187.0625000000,,,
1.1523437500,9,-54257.4882812500,-37553.9648437500,-50400.9726562500,-2216.6987304688,-79349.3984375000,-43826.8515625000,-73089.3593750000,-34262.0820312500,-102070.0390625000,-98514.4062500000,-63773.0898437500,-57453.4414062500,-79254.7812500000,-51292.0625000000,-65639.6015625000,-67195.9687500000,,,
1.1562500000,9,-54262.8164062500,-37563.6015625000,-50409.3437500000,-2226.5668945313,-79361.2968750000,-43838.1171875000,-73135.3203125000,-34276.3671875000,-102070.0390625000,-98525.2578125000,-63785.4765625000,-57465.7460937500,-79266.2812500000,-51301.4296875000,-65649.5078125000,-67207.5703125000,,,
1.1601562500,9,-54253.0117187500,-37561.6445312500,-50408.8437500000,-2227.6862792969,-79368.5000000000,-43845.6523437500,-73159.8359375000,-34282.6445312500,-102070.0390625000,-98534.0234375000,-63791.2421875000,-57469.4570312500,-79272.9218750000,-51306.7617187500,-65653.7734375000,-67206.4843750000,,,
1.1640625000,9,-54240.7929687500,-37554.6367187500,-50405.8164062500,-2226.5910644531,-79364.6093750000,-43846.4765625000,-73166.7968750000,-34281.4648437500,-102070.0390625000,-98535.7734375000,-63789.8671875000,-57467.0820312500,-79272.5937500000,-51302.5625000000,-65647.3125000000,-67202.9765625000,,,
1.1679687500,9,-54242.4375000000,-37557.8242187500,-50410.1718750000,-2226.8344726563,-79365.0781250000,-43845.3476562500,-73165.5625000000,-34282.8125000000,-102070.0390625000,-98532.5234375000,-63790.4648437500,-57469.0546875000,-79273.3593750000,-51299.2031250000,-65644.4687500000,-67205.1328125000,,,
1.1718750000,9,-54257.7421875000,-37572.3632812500,-50427.2812500000,-2233.4658203125,-79367.6250000000,-43849.2031250000,-73144.1015625000,-34287.2421875000,-102070.0390625000,-98535.6484375000,-63797.2187500000,-57475.6601562500,-79279.2968750000,-51305.7617187500,-65650.7109375000,-67215.0000000000,,,
1.1757812500,9,-54268.9726562500,-37578.3125000000,-50435.4062500000,-2239.6958007813,-79366.9765625000,-43852.0390625000,-73140.5156250000,-34292.2460937500,-102070.0390625000,-98545.0000000000,-63807.0234375000,-57485.4804687500,-79282.7265625000,-51314.2578125000,-65657.5703125000,-67221.1796875000,,,
1.1796875000,9,-54268.6953125000,-37572.5703125000,-50429.1406250000,-2236.8364257813,-79376.0781250000,-43857.7812500000,-73167.3671875000,-34292.9492187500,-102070.0390625000,-98548.4062500000,-63806.3789062500,-57484.9687500000,-79285.1718750000,-51316.6054687500,-65660.7031250000,-67222.9453125000,,,
1.1835937500,9,-54253.6289062500,-37555.5976562500,-50413.5429687500,-2223.7075195313,-79358.3906250000,-43848.7890625000,-73151.3750000000,-34282.0703125000,-102070.0390625000,-98538.6093750000,-63793.8828125000,-57473.9101562500,-79273.9453125000,-51304.7148437500,-65650.1718750000,-67210.5859375000,,,
1.1875000000,9,-54246.3906250000,-37551.1445312500,-50410.2929687500,-2219.4365234375,-79351.7656250000,-43841.1601562500,-73118.9140625000,-34274.4570312500,-102070.0390625000,-98532.8046875000,-63788.8945312500,-57469.9921875000,-79262.5078125000,-51299.1445312500,-65646.5468750000,-67211.0859375000,,,
1.1914062500,9,-54262.0859375000,-37568.3984375000,-50428.7773437500,-2231.7624511719,-79363.7890625000,-43849.6523437500,-73128.2265625000,-34284.8828125000,-102070.0390625000,-98541.0156250000,-63799.7968750000,-57480.4570312500,-79280.3437500000,-51315.2187500000,-65654.3593750000,-67229.0468750000,,,
1.1953125000,9,-54275.4218750000,-37577.0585937500,-50437.6953125000,-2240.1945800781,-79376.3750000000,-43860.6640625000,-73143.0156250000,-34295.3593750000,-102070.0390625000,-98553.6250000000,-63811.9765625000,-57490.3476562500,-79291.4921875000,-51322.1757812500,-65664.5468750000,-67240.5078125000,,,
1.1992187500,9,-54271.8710937500,-37570.0039062500,-50428.7148437500,-2236.4348144531,-79378.6484375000,-43863.6328125000,-73152.0000000000,-34294.9804687500,-102070.0390625000,-98556.6171875000,-63810.3945312500,-57486.8085937500,-79290.3203125000,-51314.8750000000,-65659.0546875000,-67235.3828125000,,,
1.2031250000,9,-54255.6015625000,-37555.4140625000,-50411.8125000000,-2224.1699218750,-79371.0937500000,-43856.2968750000,-73165.9453125000,-34286.2343750000,-102070.0390625000,-98546.9218750000,-63798.3750000000,-57474.9179687500,-79281.6562500000,-51300.6523437500,-65639.5312500000,-67221.7031250000,,,
1.2070312500,9,-54241.4257812500,-37549.7421875000,-50405.4375000000,-2215.1535644531,-79360.3359375000,-43848.7656250000,-73147.3125000000,-34275.5976562500,-102070.0390625000,-98535.7890625000,-63789.5039062500,-57465.5742187500,-79273.6640625000,-51291.7109375000,-65631.7031250000,-67215.5390625000,,,
1.2109375000,9,-54246.6835937500,-37562.3125000000,-50418.7031250000,-2222.2958984375,-79362.4296875000,-43850.3710937500,-73123.6328125000,-34276.4609375000,-102070.0390625000,-98538.2812500000,-63794.6523437500,-57471.8281250000,-79277.4609375000,-51301.3945312500,-65645.6250000000,-67222.8515625000,,,
1.2148437500,9,-54259.7148437500,-37578.3632812500,-50434.6914062500,-2232.6020507813,-79365.3750000000,-43855.3867187500,-73144.8046875000,-34285.5898437500,-102070.0390625000,-98549.2031250000,-63806.5859375000,-57484.5078125000,-79286.9843750000,-51319.2578125000,-65667.6015625000,-67234.8125000000,,,
1.2187500000,9,-54258.7187500000,-37572.6054687500,-50432.3398437500,-2228.1242675781,-79373.0000000000,-43861.1875000000,-73163.3515625000,-34288.2539062500,-102070.0390625000,-98550.4140625000,-63803.7773437500,-57482.1953125000,-79283.9453125000,-51322.1640625000,-65672.0390625000,-67226.8906250000,,,
1.2226562500,9,-54250.2617187500,-37557.1796875000,-50416.0117187500,-2215.8349609375,-79361.0859375000,-43852.7070312500,-73145.7343750000,-34277.0234375000,-102070.0390625000,-98542.0781250000,-63793.1054687500,-57472.9609375000,-79274.2031250000,-51313.9531250000,-65665.9687500000,-67214.9375000000,,,
1.2265625000,9,-54246.3320312500,-37552.5781250000,-50408.3085937500,-2210.7854003906,-79356.2734375000,-43845.9062500000,-73132.7734375000,-34270.5507812500,-102070.0390625000,-98535.5078125000,-63786.6796875000,-57467.9335937500,-79267.7968750000,-51307.9765625000,-65658.7500000000,-67210.8906250000,,,
1.2304687500,9,-54253.2773437500,-37561.0703125000,-50418.6875000000,-2216.4433593750,-79359.6171875000,-43844.7148437500,-73113.4140625000,-34271.3515625000,-102070.0390625000,-98533.5468750000,-63788.7109375000,-57471.8515625000,-79267.8515625000,-51308.7695312500,-65653.7031250000,-67217.6406250000,,,
1.2343750000,9,-54258.6210937500,-37570.3789062500,-50428.2148437500,-2223.7194824219,-79365.4062500000,-43846.3437500000,-73098.0859375000,-34273.6757812500,-102070.0390625000,-98539.3046875000,-63793.8476562500,-57478.9960937500,-79271.6562500000,-51316.8945312500,-65658.0625000000,-67225.6953125000,,,
1.2382812500,9,-54253.7421875000,-37564.8789062500,-50422.9492187500,-2220.0085449219,-79370.3359375000,-43848.7539062500,-73122.9687500000,-34276.3164062500,-102070.0390625000,-98543.9531250000,-63794.5039062500,-57479.0937500000,-79270.2578125000,-51319.0390625000,-65657.6953125000,-67225.1640625000,,,
1.2421875000,9,-54238.8242187500,-37549.2929687500,-50409.1875000000,-2205.7358398438,-79361.7734375000,-43839.1914062500,-73131.9453125000,-34266.9843750000,-102070.0390625000,-98534.6328125000,-63782.4101562500,-57467.3984375000,-79258.9062500000,-51305.8710937500,-65646.3906250000,-67211.6171875000,,,
1.2460937500,9,-54228.4296875000,-37536.8085937500,-50397.6757812500,-2196.3178710938,-79346.9531250000,-43829.2734375000,-73106.1406250000,-34256.2890625000,-102070.0390625000,-98524.7031250000,-63771.8593750000,-57458.5664062500,-79250.9609375000,-51296.1875000000,-65635.8046875000,-67202.6484375000,,,
1.2500000000,10,-54242.1093750000,-37546.9804687500,-50408.0664062500,-2204.3730468750,-79349.6171875000,-43832.9492187500,-73102.1562500000,-34261.5078125000,-102070.0390625000,-98526.2421875000,-63777.4101562500,-57464.9062500000,-79253.0781250000,-51297.7812500000,-65638.5468750000,-67208.8203125000,,,
1.2539062500,10,-54261.6601562500,-37562.4335937500,-50422.1445312500,-2215.7011718750,-79359.7031250000,-43842.6093750000,-73121.1562500000,-34272.7773437500,-102070.0390625000,-98534.8984375000,-63787.6914062500,-57473.3867187500,-79266.4375000000,-51309.1562500000,-65650.8437500000,-67220.9062500000,,,
1.2578125000,10,-54257.0000000000,-37556.4492187500,-50415.7812500000,-2212.9025878906,-79359.3281250000,-43845.0039062500,-73129.0390625000,-34274.3085937500,-102070.0390625000,-98538.0390625000,-63789.1367187500,-57474.8593750000,-79267.8359375000,-51314.1718750000,-65656.6718750000,-67218.7265625000,,,
1.2617187500,10,-54242.9726562500,-37541.3242187500,-50405.2695312500,-2202.2800292969,-79354.4062500000,-43842.4375000000,-73145.0546875000,-34269.5507812500,-102070.0390625000,-98536.5859375000,-63782.4570312500,-57468.5937500000,-79264.6718750000,-51311.8242187500,-65652.6796875000,-67210.9843750000,,,
1.2656250000,10,-54228.5664062500,-37531.3203125000,-50399.0859375000,-2194.8090820313,-79341.1093750000,-43831.7539062500,-73144.7500000000,-34264.1484375000,-102070.0390625000,-98526.8203125000,-63775.8632812500,-57462.2890625000,-79258.8671875000,-51304.2656250000,-65644.8203125000,-67203.1406250000,,,
1.2695312500,10,-54227.4453125000,-37537.2734375000,-50402.9335937500,-2197.0722656250,-79335.4375000000,-43826.1093750000,-73109.5703125000,-34261.1796875000,-102070.0390625000,-98519.7968750000,-63774.1093750000,-57460.2460937500,-79257.2968750000,-51299.8476562500,-65639.3437500000,-67201.9375000000,,,
1.2734375000,10,-54239.0664062500,-37549.4648437500,-50410.4140625000,-2204.1418457031,-79346.0703125000,-43828.2382812500,-73109.7421875000,-34265.4375000000,-102070.0390625000,-98524.0156250000,-63778.9062500000,-57467.5820312500,-79260.6718750000,-51304.0117187500,-65644.1875000000,-67209.1015625000,,,
1.2773437500,10,-54243.8984375000,-37551.7617187500,-50408.4921875000,-2204.3850097656,-79348.4140625000,-43831.5000000000,-73131.1406250000,-34267.9804687500,-102070.0390625000,-98529.9843750000,-63783.3828125000,-57470.4531250000,-79258.2343750000,-51304.9101562500,-65642.3359375000,-67207.1171875000,,,
1.2812500000,10,-54232.8710937500,-37536.4921875000,-50392.6640625000,-2193.2395019531,-79353.3515625000,-43831.0976562500,-73128.2265625000,-34264.9296875000,-102070.0390625000,-98527.8515625000,-63777.6640625000,-57464.5390625000,-79257.4296875000,-51304.0976562500,-65639.8125000000,-67206.2500000000,,,
1.2851562500,10,-54225.1093750000,-37531.2968750000,-50392.0781250000,-2188.7617187500,-79347.5234375000,-43826.4609375000,-73116.7109375000,-34260.5117187500,-102070.0390625000,-98523.0234375000,-63773.7109375000,-57459.0039062500,-79253.8671875000,-51298.7304687500,-65631.9375000000,-67202.4296875000,,,
1.2890625000,10,-54227.7031250000,-37536.2148437500,-50400.4257812500,-2190.3679199219,-79346.5468750000,-43823.4218750000,-73103.8281250000,-34255.6914062500,-102070.0390625000,-98518.0781250000,-63771.6406250000,-57458.9414062500,-79252.8203125000,-51292.0117187500,-65631.9375000000,-67205.3515625000,,,
1.2929687500,10,-54233.9296875000,-37546.2148437500,-50406.6914062500,-2192.2661132813,-79348.7421875000,-43822.8359375000,-73081.8359375000,-34257.6132812500,-102070.0390625000,-98517.3750000000,-63774.9765625000,-57463.3125000000,-79255.9218750000,-51292.4257812500,-65638.2656250000,-67209.6015625000,,,
1.2968750000,10,-54236.0000000000,-37544.7539062500,-50399.9765625000,-2193.7871093750,-79351.4375000000,-43823.2968750000,-73090.3437500000,-34258.5273437500,-102070.0390625000,-98520.9062500000,-63777.2617187500,-57465.1601562500,-79257.4062500000,-51292.0859375000,-65639.9296875000,-67206.7500000000,,,
1.3007812500,10,-54229.3945312500,-37532.5273437500,-50389.5234375000,-2183.7487792969,-79350.2734375000,-43821.6054687500,-73114.3281250000,-34254.8789062500,-102070.0390625000,-98518.0546875000,-63772.5898437500,-57460.2343750000,-79253.6093750000,-51285.9921875000,-65633.1875000000,-67199.1562500000,,,
1.3046875000,10,-54219.3789062500,-37521.3945312500,-50380.3710937500,-2174.2336425781,-79338.0156250000,-43813.5781250000,-73097.4531250000,-34244.9492187500,-102070.0390625000,-98511.3671875000,-63764.0000000000,-57451.1562500000,-79242.3828125000,-51277.2890625000,-65624.6562500000,-67189.3046875000,,,
1.3085937500,10,-54223.4804687500,-37529.5468750000,-50387.4687500000,-2179.6237792969,-79344.7265625000,-43815.3046875000,-73075.6250000000,-34244.7070312500,-102070.0390625000,-98510.6796875000,-63762.4687500000,-57452.6640625000,-79248.2421875000,-51279.4921875000,-65620.4531250000,-67188.3515625000,,,
1.3125000000,10,-54239.4062500000,-37545.4843750000,-50403.1875000000,-2189.1999511719,-79354.5781250000,-43821.9375000000,-73084.2890625000,-34249.1445312500,-102070.0390625000,-98515.4921875000,-63767.9414062500,-57457.1796875000,-79253.9765625000,-51286.5390625000,-65630.7187500000,-67199.6250000000,,,
1.3164062500,10,-54243.2500000000,-37544.2187500000,-50402.0429687500,-2187.6911621094,-79354.2656250000,-43824.8320312500,-73085.3828125000,-34249.8632812500,-102070.0390625000,-98519.3750000000,-63767.6640625000,-57457.3984375000,-79252.4765625000,-51289.5078125000,-65628.7812500000,-67196.0937500000,,,
1.3203125000,10,-54233.4570312500,-37532.6132812500,-50392.2500000000,-2178.1879882813,-79347.7421875000,-43820.3789062500,-73086.3437500000,-34244.7304687500,-102070.0390625000,-98516.2343750000,-63761.0664062500,-57448.9765625000,-79244.4609375000,-51288.2304687500,-65616.9687500000,-67185.0078125000,,,
1.3242187500,10,-54217.2968750000,-37523.3398437500,-50385.9335937500,-2169.3542480469,-79342.2812500000,-43815.8632812500,-73095.3671875000,-34241.0898437500,-102070.0390625000,-98510.4140625000,-63755.8828125000,-57442.1875000000,-79239.5703125000,-51281.6835937500,-65612.1406250000,-67179.7500000000,,,
1.3281250000,10,-54213.2226562500,-37527.1953125000,-50394.1953125000,-2170.8630371094,-79335.7343750000,-43810.6679687500,-73069.6953125000,-34238.4492187500,-102070.0390625000,-98503.9687500000,-63754.0820312500,-57442.1289062500,-79238.9843750000,-51280.0390625000,-65618.9921875000,-67180.8750000000,,,
1.3320312500,10,-54227.0703125000,-37542.8828125000,-50413.2031250000,-2184.5761718750,-79332.0468750000,-43809.4531250000,-73049.8984375000,-34241.7109375000,-102070.0390625000,-98507.4687500000,-63759.0468750000,-57449.8281250000,-79241.3828125000,-51285.0039062500,-65631.8515625000,-67190.8593750000,,,
1.3359375000,10,-54235.8281250000,-37545.9843750000,-50417.3632812500,-2190.6113281250,-79349.2500000000,-43817.4101562500,-73082.6796875000,-34250.0937500000,-102070.0390625000,-98514.1171875000,-63765.0468750000,-57453.4804687500,-79251.4062500000,-51293.4257812500,-65636.8671875000,-67196.1093750000,,,
1.3398437500,10,-54228.7109375000,-37539.4023437500,-50408.1640625000,-2185.6955566406,-79350.8671875000,-43818.3085937500,-73100.1406250000,-34250.2031250000,-102070.0390625000,-98518.0781250000,-63764.2070312500,-57451.2421875000,-79250.4453125000,-51296.7460937500,-65634.8593750000,-67192.9765625000,,,
1.3437500000,10,-54219.7812500000,-37531.3828125000,-50400.6445312500,-2179.0397949219,-79348.2187500000,-43817.9335937500,-73096.7578125000,-34246.8476562500,-102070.0390625000,-98517.2265625000,-63762.2851562500,-57447.2734375000,-79249.2578125000,-51291.2578125000,-65630.1562500000,-67188.2109375000,,,
1.3476562500,10,-54222.0195312500,-37534.5585937500,-50398.3671875000,-2180.0861816406,-79349.7031250000,-43816.9101562500,-73098.3750000000,-34247.3945312500,-102070.0390625000,-98513.7734375000,-63763.0273437500,-57446.6171875000,-79249.8750000000,-51280.5625000000,-65624.4140625000,-67190.1328125000,,,
1.3515625000,10,-54238.2382812500,-37550.1210937500,-50412.7265625000,-2189.0417480469,-79359.3515625000,-43823.0781250000,-73093.8593750000,-34254.0976562500,-102070.0390625000,-98517.0468750000,-63769.1484375000,-57453.6250000000,-79257.4921875000,-51282.2421875000,-65629.2734375000,-67199.6484375000,,,
1.3554687500,10,-54248.6171875000,-37555.0000000000,-50416.1093750000,-2193.8479003906,-79366.3359375000,-43829.0664062500,-73098.0937500000,-34260.7070312500,-102070.0390625000,-98523.4687500000,-63775.0000000000,-57460.9492187500,-79264.2500000000,-51287.5976562500,-65634.2968750000,-67203.4218750000,,,
1.3593750000,10,-54243.5078125000,-37544.4765625000,-50409.6953125000,-2188.8835449219,-79369.4140625000,-43831.0390625000,-73128.1484375000,-34264.0156250000,-102070.0390625000,-98527.1718750000,-63774.7304687500,-57459.5742187500,-79264.7343750000,-51289.2617187500,-65631.3125000000,-67200.4140625000,,,
1.3632812500,10,-54232.2148437500,-37534.9609375000,-50405.0507812500,-2183.4445800781,-79364.1796875000,-43828.3007812500,-73135.2109375000,-34260.0117187500,-102070.0390625000,-98522.7890625000,-63769.4023437500,-57453.8085937500,-79260.6562500000,-51284.5195312500,-65627.7890625000,-67194.3281250000,,,
1.3671875000,10,-54228.7851562500,-37533.2460937500,-50408.6367187500,-2181.8383789063,-79349.1015625000,-43819.7226562500,-73102.7812500000,-34251.4570312500,-102070.0390625000,-98518.3750000000,-63765.9843750000,-57450.1835937500,-79258.7812500000,-51283.6679687500,-65629.3359375000,-67194.1718750000,,,
1.3710937500,10,-54236.9609375000,-37547.9179687500,-50422.1953125000,-2189.1511230469,-79365.3515625000,-43827.2773437500,-73100.2265625000,-34257.1289062500,-102070.0390625000,-98520.8671875000,-63770.9609375000,-57454.0898437500,-79262.0234375000,-51288.5468750000,-65631.6562500000,-67199.6796875000,,,
1.3750000000,11,-54240.9140625000,-37555.3906250000,-50424.3945312500,-2193.8479003906,-79371.0390625000,-43833.3125000000,-73110.2890625000,-34262.0195312500,-102070.0390625000,-98526.4296875000,-63776.8867187500,-57458.4570312500,-79266.2656250000,-51294.3984375000,-65642.1953125000,-67210.4609375000,,,
1.3789062500,11,-54232.2382812500,-37544.0742187500,-50409.3320312500,-2188.0561523438,-79365.2500000000,-43830.7695312500,-73105.5312500000,-34258.0664062500,-102070.0390625000,-98525.8593750000,-63771.1679687500,-57452.6640625000,-79259.9062500000,-51291.8554687500,-65637.5468750000,-67200.1484375000,,,
1.3828125000,11,-54221.0820312500,-37531.7460937500,-50392.3593750000,-2177.3120117188,-79355.7343750000,-43822.7382812500,-73107.3671875000,-34250.7890625000,-102070.0390625000,-98519.0546875000,-63760.2539062500,-57441.7968750000,-79249.5468750000,-51281.2812500000,-65618.4140625000,-67188.1093750000,,,
1.3867187500,11,-54217.6406250000,-37530.8125000000,-50386.7968750000,-2173.0290527344,-79349.7265625000,-43814.6718750000,-73090.6484375000,-34245.2656250000,-102070.0390625000,-98511.4609375000,-63754.8242187500,-57438.3046875000,-79245.0937500000,-51274.3710937500,-65611.5703125000,-67185.3125000000,,,
1.3906250000,11,-54229.3085937500,-37543.2929687500,-50399.1250000000,-2181.7653808594,-79350.3203125000,-43815.6562500000,-73053.9609375000,-34245.6054687500,-102070.0390625000,-98510.8437500000,-63757.7812500000,-57444.5000000000,-79247.4296875000,-51278.4453125000,-65623.0078125000,-67190.7734375000,,,
1.3945312500,11,-54242.0703125000,-37553.3437500000,-50413.0078125000,-2192.1323242188,-79359.5078125000,-43822.5078125000,-73062.3359375000,-34251.1796875000,-102070.0390625000,-98519.3750000000,-63765.5312500000,-57453.1640625000,-79253.9296875000,-51287.1093750000,-65635.8281250000,-67199.2812500000,,,
1.3984375000,11,-54242.1562500000,-37547.1015625000,-50410.9023437500,-2189.8083496094,-79364.0859375000,-43826.0351562500,-73088.1796875000,-34252.1757812500,-102070.0390625000,-98527.3437500000,-63766.0820312500,-57452.9453125000,-79255.0000000000,-51286.3437500000,-65630.5390625000,-67197.0703125000,,,
1.4023437500,11,-54230.7539062500,-37533.6093750000,-50397.9804687500,-2178.4069824219,-79350.8203125000,-43817.7500000000,-73074.3437500000,-34240.5429687500,-102070.0390625000,-98521.0156250000,-63756.5273437500,-57443.4531250000,-79244.1718750000,-51276.6210937500,-65609.5000000000,-67181.3437500000,,,
1.4062500000,11,-54219.9375000000,-37528.6953125000,-50391.1054687500,-2171.4472656250,-79346.9375000000,-43814.3046875000,-73068.7812500000,-34234.2539062500,-102070.0390625000,-98515.6015625000,-63749.8359375000,-57437.1015625000,-79240.5312500000,-51271.5000000000,-65604.2578125000,-67180.1015625000,,,
1.4101562500,11,-54225.4765625000,-37538.2070312500,-50397.4062500000,-2176.5332031250,-79352.4140625000,-43815.3164062500,-73065.7187500000,-34237.9257812500,-102070.0390625000,-98514.3203125000,-63752.7343750000,-57443.2695312500,-79244.7500000000,-51274.4062500000,-65612.8906250000,-67187.8906250000,,,
1.4140625000,11,-54238.1640625000,-37549.2460937500,-50408.3359375000,-2187.0583496094,-79360.8593750000,-43822.1289062500,-73063.9531250000,-34246.9570312500,-102070.0390625000,-98520.6484375000,-63760.5195312500,-57451.2656250000,-79251.4843750000,-51280.8320312500,-65620.6796875000,-67194.6718750000,,,
1.4179687500,11,-54237.1679687500,-37547.9414062500,-50405.0351562500,-2187.7275390625,-79366.9531250000,-43826.8515625000,-73089.8671875000,-34250.9726562500,-102070.0390625000,-98526.2812500000,-63762.3710937500,-57452.9335937500,-79252.2734375000,-51276.5117187500,-65620.4765625000,-67192.2734375000,,,
1.4218750000,11,-54217.2851562500,-37529.8750000000,-50386.2968750000,-2171.9582519531,-79358.5000000000,-43818.7460937500,-73107.3906250000,-34243.8906250000,-102070.0390625000,-98515.7109375000,-63752.0156250000,-57440.5312500000,-79239.9375000000,-51266.1445312500,-65611.2656250000,-67178.3984375000,,,
1.4257812500,11,-54198.6445312500,-37514.3125000000,-50370.0312500000,-2158.8657226563,-79343.2500000000,-43803.8671875000,-73077.6015625000,-34230.9453125000,-102070.0390625000,-98500.9218750000,-63739.7382812500,-57428.5585937500,-79228.5312500000,-51256.7617187500,-65600.1406250000,-67163.4843750000,,,
1.4296875000,11,-54200.5546875000,-37520.3945312500,-50375.3828125000,-2164.3413085938,-79336.3984375000,-43798.2343750000,-73055.2187500000,-34230.6289062500,-102070.0390625000,-98495.9140625000,-63739.9453125000,-57429.6914062500,-79230.6406250000,-51259.4648437500,-65595.9531250000,-67169.6875000000,,,
1.4335937500,11,-54217.7226562500,-37538.6210937500,-50391.7265625000,-2178.8085937500,-79355.3984375000,-43810.9375000000,-73076.5625000000,-34246.3125000000,-102070.0390625000,-98507.6406250000,-63753.7656250000,-57442.4687500000,-79243.5468750000,-51272.6679687500,-65598.6562500000,-67185.0000000000,,,
1.4375000000,11,-54223.6250000000,-37543.6250000000,-50396.3476562500,-2184.5395507813,-79363.0390625000,-43820.3671875000,-73090.7968750000,-34253.4414062500,-102070.0390625000,-98519.1015625000,-63761.8593750000,-57448.6132812500,-79252.3593750000,-51276.9609375000,-65606.9453125000,-67188.3828125000,,,
1.4414062500,11,-54216.6289062500,-37531.9062500000,-50383.2578125000,-2176.1682128906,-79359.2031250000,-43820.3671875000,-73097.3515625000,-34248.3671875000,-102070.0390625000,-98518.8750000000,-63756.5156250000,-57442.7226562500,-79247.2109375000,-51269.2617187500,-65605.4218750000,-67179.2421875000,,,
1.4453125000,11,-54206.2382812500,-37522.4882812500,-50375.4218750000,-2165.0349121094,-79351.8750000000,-43815.0507812500,-73101.4687500000,-34240.3867187500,-102070.0390625000,-98512.0937500000,-63747.4023437500,-57434.1562500000,-79241.0156250000,-51259.3554687500,-65601.6484375000,-67170.3437500000,,,
1.4492187500,11,-54215.7265625000,-37531.2968750000,-50386.5429687500,-2167.5900878906,-79349.5390625000,-43813.6484375000,-73071.9921875000,-34237.7812500000,-102070.0390625000,-98509.3437500000,-63747.4648437500,-57435.2656250000,-79240.2656250000,-51259.4648437500,-65608.8671875000,-67174.7265625000,,,
1.4531250000,11,-54233.3710937500,-37546.7734375000,-50396.3867187500,-2178.8937988281,-79357.2656250000,-43821.4843750000,-73066.0468750000,-34244.1835937500,-102070.0390625000,-98516.4531250000,-63755.3867187500,-57446.4335937500,-79248.5468750000,-51271.9492187500,-65621.5312500000,-67185.2187500000,,,
1.4570312500,11,-54235.7695312500,-37547.2382812500,-50393.7343750000,-2181.3029785156,-79356.3671875000,-43822.9101562500,-73096.3046875000,-34249.5234375000,-102070.0390625000,-98523.7890625000,-63760.0195312500,-57451.2539062500,-79251.7109375000,-51280.1015625000,-65624.7578125000,-67188.4765625000,,,
1.4609375000,11,-54221.5703125000,-37536.1757812500,-50382.4882812500,-2175.5234375000,-79364.5781250000,-43826.7304687500,-73104.6015625000,-34246.6875000000,-102070.0390625000,-98522.2421875000,-63753.7304687500,-57444.2695312500,-79246.0078125000,-51277.7656250000,-65615.0078125000,-67178.7421875000,,,
1.4648437500,11,-54208.3320312500,-37520.6132812500,-50371.5390625000,-2166.8720703125,-79354.7968750000,-43818.4062500000,-73086.8281250000,-34237.3671875000,-102070.0390625000,-98515.0781250000,-63744.9453125000,-57436.7968750000,-79236.6718750000,-51269.2851562500,-65602.5625000000,-67169.3593750000,,,
1.4687500000,11,-54211.5664062500,-37523.7773437500,-50377.1015625000,-2168.1010742188,-79353.7500000000,-43814.7578125000,-73074.4140625000,-34236.0546875000,-102070.0390625000,-98509.1718750000,-63741.9414062500,-57434.9101562500,-79235.0937500000,-51263.6875000000,-65596.9140625000,-67170.6015625000,,,
1.4726562500,11,-54225.2929687500,-37535.3242187500,-50391.9921875000,-2177.6040039063,-79358.5000000000,-43817.7148437500,-73057.7812500000,-34239.5703125000,-102070.0390625000,-98508.5625000000,-63745.5429687500,-57438.4882812500,-79238.8046875000,-51267.5078125000,-65596.9765625000,-67175.4843750000,,,
1.4765625000,11,-54228.2109375000,-37536.1054687500,-50396.5195312500,-2179.4291992188,-79361.1406250000,-43819.8554687500,-73059.1328125000,-34242.1757812500,-102070.0390625000,-98514.1406250000,-63748.3515625000,-57442.7734375000,-79239.5546875000,-51274.4921875000,-65602.3046875000,-67177.2343750000,,,
1.4804687500,11,-54218.2578125000,-37525.7734375000,-50386.7226562500,-2172.7978515625,-79356.7421875000,-43817.6289062500,-73084.4687500000,-34241.0664062500,-102070.0390625000,-98513.2421875000,-63742.1328125000,-57436.8359375000,-79234.5703125000,-51274.6132812500,-65603.5390625000,-67170.0390625000,,,
1.4843750000,11,-54204.0117187500,-37514.0937500000,-50372.4765625000,-2162.3093261719,-79343.6562500000,-43808.2109375000,-73072.5546875000,-34231.9648437500,-102070.0390625000,-98503.4765625000,-63731.3281250000,-57426.1250000000,-79222.8359375000,-51265.9882812500,-65597.7187500000,-67159.1171875000,,,
1.4882812500,11,-54197.7812500000,-37513.7382812500,-50367.3046875000,-2157.7829589844,-79326.5234375000,-43798.1601562500,-73036.6250000000,-34222.0742187500,-102070.0390625000,-98496.2890625000,-63724.6484375000,-57422.0507812500,-79217.8515625000,-51259.6484375000,-65593.6171875000,-67157.6406250000,,,
1.4921875000,11,-54213.3671875000,-37530.9570312500,-50381.8710937500,-2166.7016601563,-79337.6328125000,-43805.7148437500,-73043.0625000000,-34227.6562500000,-102070.0390625000,-98499.4531250000,-63733.5195312500,-57428.2578125000,-79223.8125000000,-51264.1484375000,-65599.4453125000,-67167.8281250000,,,
1.4960937500,11,-54224.2226562500,-37534.6679687500,-50389.0351562500,-2169.7680664063,-79347.5625000000,-43813.9296875000,-73063.4062500000,-34234.1679687500,-102070.0390625000,-98509.2500000000,-63738.7031250000,-57433.2929687500,-79229.6328125000,-51273.2734375000,-65604.7500000000,-67173.6718750000,,,
1.5000000000,12,-54218.2968750000,-37522.0742187500,-50377.8906250000,-2162.1752929688,-79344.8437500000,-43814.9257812500,-73068.2734375000,-34229.5937500000,-102070.0390625000,-98510.1484375000,-63734.7734375000,-57426.7109375000,-79224.9296875000,-51273.7382812500,-65598.6328125000,-67165.1484375000,,,
1.5039062500,12,-54204.2304687500,-37508.0429687500,-50365.2617187500,-2150.2268066406,-79336.3984375000,-43807.4804687500,-73079.6875000000,-34221.4296875000,-102070.0390625000,-98503.7968750000,-63726.1210937500,-57416.8671875000,-79218.3750000000,-51266.6445312500,-65587.3203125000,-67154.9531250000,,,
1.5078125000,12,-54193.3750000000,-37505.6601562500,-50359.9921875000,-2146.0410156250,-79331.2421875000,-43801.8085937500,-73063.8828125000,-34216.6445312500,-102070.0390625000,-98495.1796875000,-63719.3671875000,-57411.3046875000,-79214.5078125000,-51256.4726562500,-65580.2734375000,-67150.0390625000,,,
1.5117187500,12,-54199.5195312500,-37518.2304687500,-50371.7109375000,-2153.6335449219,-79329.6875000000,-43801.3125000000,-73037.9531250000,-34217.1953125000,-102070.0390625000,-98493.4687500000,-63722.0195312500,-57415.8437500000,-79217.2578125000,-51254.0976562500,-65580.1718750000,-67153.9296875000,,,
1.5156250000,12,-54207.4648437500,-37526.3320312500,-50380.3867187500,-2160.8854980469,-79336.7656250000,-43805.5351562500,-73060.1718750000,-34225.4921875000,-102070.0390625000,-98497.7968750000,-63728.1679687500,-57422.4140625000,-79221.8515625000,-51253.7578125000,-65581.6796875000,-67158.2500000000,,,
1.5195312500,12,-54197.3203125000,-37518.6914062500,-50369.9218750000,-2152.6115722656,-79325.5937500000,-43798.5390625000,-73073.1875000000,-34220.2109375000,-102070.0390625000,-98498.1015625000,-63724.3320312500,-57417.8515625000,-79216.4140625000,-51247.2734375000,-65572.8750000000,-67149.1015625000,,,
1.5234375000,12,-54184.1054687500,-37506.3554687500,-50357.9843750000,-2145.1892089844,-79327.6796875000,-43796.9804687500,-73056.0078125000,-34213.2500000000,-102070.0390625000,-98489.3906250000,-63716.3632812500,-57409.8359375000,-79211.2578125000,-51241.2968750000,-65564.8671875000,-67141.0078125000,,,
